Apr. 7, 2019   11:36:06
Linear Sweep Voltammetry
File: D:\process\data\lsv1.bin.txt
Data Source:  Experiment
Instrument Model:  CHI900D
Header: 
Note: 

Init E (V) = 0.5
Final E (V) = -0.1
Scan Rate (V/s) = 0.1
Sample Interval (V) = 0.001
Quiet Time (sec) = 2
Sensitivity (A/V) = 1e-6

Potential/V, Current/A

0.500, -4.460e-7
0.499, -3.843e-7
0.498, -3.557e-7
0.497, -3.329e-7
0.496, -3.160e-7
0.495, -2.984e-7
0.494, -2.834e-7
0.493, -2.706e-7
0.492, -2.562e-7
0.491, -2.460e-7
0.490, -2.350e-7
0.489, -2.232e-7
0.488, -2.139e-7
0.487, -2.042e-7
0.486, -1.956e-7
0.485, -1.870e-7
0.484, -1.770e-7
0.483, -1.712e-7
0.482, -1.619e-7
0.481, -1.534e-7
0.480, -1.474e-7
0.479, -1.393e-7
0.478, -1.321e-7
0.477, -1.266e-7
0.476, -1.178e-7
0.475, -1.128e-7
0.474, -1.069e-7
0.473, -9.961e-8
0.472, -9.446e-8
0.471, -8.808e-8
0.470, -8.263e-8
0.469, -7.713e-8
0.468, -6.980e-8
0.467, -6.636e-8
0.466, -6.055e-8
0.465, -5.424e-8
0.464, -5.122e-8
0.463, -4.441e-8
0.462, -3.990e-8
0.461, -3.592e-8
0.460, -2.967e-8
0.459, -2.669e-8
0.458, -2.188e-8
0.457, -1.658e-8
0.456, -1.291e-8
0.455, -7.837e-9
0.454, -3.606e-9
0.453, -3.835e-11
0.452, 6.021e-9
0.451, 7.748e-9
0.450, 1.279e-8
0.449, 1.802e-8
0.448, 1.981e-8
0.447, 2.490e-8
0.446, 2.860e-8
0.445, 3.153e-8
0.444, 3.720e-8
0.443, 3.941e-8
0.442, 4.318e-8
0.441, 4.825e-8
0.440, 5.041e-8
0.439, 5.444e-8
0.438, 5.770e-8
0.437, 6.124e-8
0.436, 6.583e-8
0.435, 6.660e-8
0.434, 7.081e-8
0.433, 7.537e-8
0.432, 7.668e-8
0.431, 8.169e-8
0.430, 8.433e-8
0.429, 8.722e-8
0.428, 9.208e-8
0.427, 9.320e-8
0.426, 9.634e-8
0.425, 1.008e-7
0.424, 1.030e-7
0.423, 1.060e-7
0.422, 1.091e-7
0.421, 1.115e-7
0.420, 1.160e-7
0.419, 1.169e-7
0.418, 1.206e-7
0.417, 1.245e-7
0.416, 1.263e-7
0.415, 1.297e-7
0.414, 1.322e-7
0.413, 1.344e-7
0.412, 1.389e-7
0.411, 1.403e-7
0.410, 1.452e-7
0.409, 1.473e-7
0.408, 1.491e-7
0.407, 1.516e-7
0.406, 1.546e-7
0.405, 1.567e-7
0.404, 1.611e-7
0.403, 1.619e-7
0.402, 1.649e-7
0.401, 1.689e-7
0.400, 1.695e-7
0.399, 1.736e-7
0.398, 1.762e-7
0.397, 1.775e-7
0.396, 1.818e-7
0.395, 1.830e-7
0.394, 1.856e-7
0.393, 1.893e-7
0.392, 1.914e-7
0.391, 1.942e-7
0.390, 1.967e-7
0.389, 1.990e-7
0.388, 2.030e-7
0.387, 2.037e-7
0.386, 2.072e-7
0.385, 2.107e-7
0.384, 2.111e-7
0.383, 2.152e-7
0.382, 2.179e-7
0.381, 2.191e-7
0.380, 2.239e-7
0.379, 2.249e-7
0.378, 2.275e-7
0.377, 2.317e-7
0.376, 2.334e-7
0.375, 2.362e-7
0.374, 2.391e-7
0.373, 2.416e-7
0.372, 2.460e-7
0.371, 2.461e-7
0.370, 2.495e-7
0.369, 2.538e-7
0.368, 2.549e-7
0.367, 2.589e-7
0.366, 2.618e-7
0.365, 2.638e-7
0.364, 2.689e-7
0.363, 2.699e-7
0.362, 2.725e-7
0.361, 2.773e-7
0.360, 2.792e-7
0.359, 2.825e-7
0.358, 2.857e-7
0.357, 2.882e-7
0.356, 2.931e-7
0.355, 2.939e-7
0.354, 2.983e-7
0.353, 3.026e-7
0.352, 3.047e-7
0.351, 3.089e-7
0.350, 3.126e-7
0.349, 3.147e-7
0.348, 3.205e-7
0.347, 3.225e-7
0.346, 3.260e-7
0.345, 3.312e-7
0.344, 3.336e-7
0.343, 3.382e-7
0.342, 3.424e-7
0.341, 3.456e-7
0.340, 3.520e-7
0.339, 3.541e-7
0.338, 3.587e-7
0.337, 3.644e-7
0.336, 3.673e-7
0.335, 3.733e-7
0.334, 3.779e-7
0.333, 3.812e-7
0.332, 3.879e-7
0.331, 3.914e-7
0.330, 3.966e-7
0.329, 4.037e-7
0.328, 4.077e-7
0.327, 4.141e-7
0.326, 4.198e-7
0.325, 4.249e-7
0.324, 4.329e-7
0.323, 4.363e-7
0.322, 4.440e-7
0.321, 4.516e-7
0.320, 4.557e-7
0.319, 4.645e-7
0.318, 4.711e-7
0.317, 4.774e-7
0.316, 4.870e-7
0.315, 4.931e-7
0.314, 5.014e-7
0.313, 5.105e-7
0.312, 5.181e-7
0.311, 5.270e-7
0.310, 5.355e-7
0.309, 5.450e-7
0.308, 5.559e-7
0.307, 5.637e-7
0.306, 5.740e-7
0.305, 5.850e-7
0.304, 5.940e-7
0.303, 6.063e-7
0.302, 6.176e-7
0.301, 6.286e-7
0.300, 6.424e-7
0.299, 6.528e-7
0.298, 6.654e-7
0.297, 6.803e-7
0.296, 6.927e-7
0.295, 7.072e-7
0.294, 7.215e-7
0.293, 7.357e-7
0.292, 7.530e-7
0.291, 7.656e-7
0.290, 7.837e-7
0.289, 8.017e-7
0.288, 8.173e-7
0.287, 8.371e-7
0.286, 8.543e-7
0.285, 8.728e-7
0.284, 8.942e-7
0.283, 9.129e-7
0.282, 9.330e-7
0.281, 9.556e-7
0.280, 9.761e-7
0.279, 1.000e-6
0.278, 1.022e-6
0.277, 1.047e-6
0.276, 1.074e-6
0.275, 1.097e-6
0.274, 1.123e-6
0.273, 1.152e-6
0.272, 1.177e-6
0.271, 1.208e-6
0.270, 1.236e-6
0.269, 1.265e-6
0.268, 1.298e-6
0.267, 1.327e-6
0.266, 1.360e-6
0.265, 1.395e-6
0.264, 1.427e-6
0.263, 1.464e-6
0.262, 1.499e-6
0.261, 1.536e-6
0.260, 1.575e-6
0.259, 1.609e-6
0.258, 1.652e-6
0.257, 1.692e-6
0.256, 1.730e-6
0.255, 1.774e-6
0.254, 1.815e-6
0.253, 1.857e-6
0.252, 1.905e-6
0.251, 1.947e-6
0.250, 1.994e-6
0.249, 2.042e-6
0.248, 2.087e-6
0.247, 2.137e-6
0.246, 2.183e-6
0.245, 2.234e-6
0.244, 2.287e-6
0.243, 2.331e-6
0.242, 2.386e-6
0.241, 2.438e-6
0.240, 2.486e-6
0.239, 2.544e-6
0.238, 2.596e-6
0.237, 2.649e-6
0.236, 2.707e-6
0.235, 2.756e-6
0.234, 2.812e-6
0.233, 2.868e-6
0.232, 2.922e-6
0.231, 2.978e-6
0.230, 3.026e-6
0.229, 3.083e-6
0.228, 3.143e-6
0.227, 3.189e-6
0.226, 3.248e-6
0.225, 3.304e-6
0.224, 3.354e-6
0.223, 3.411e-6
0.222, 3.460e-6
0.221, 3.511e-6
0.220, 3.566e-6
0.219, 3.612e-6
0.218, 3.663e-6
0.217, 3.712e-6
0.216, 3.757e-6
0.215, 3.808e-6
0.214, 3.850e-6
0.213, 3.896e-6
0.212, 3.946e-6
0.211, 3.982e-6
0.210, 4.026e-6
0.209, 4.067e-6
0.208, 4.102e-6
0.207, 4.145e-6
0.206, 4.179e-6
0.205, 4.214e-6
0.204, 4.250e-6
0.203, 4.276e-6
0.202, 4.308e-6
0.201, 4.338e-6
0.200, 4.363e-6
0.199, 4.391e-6
0.198, 4.413e-6
0.197, 4.436e-6
0.196, 4.462e-6
0.195, 4.473e-6
0.194, 4.496e-6
0.193, 4.515e-6
0.192, 4.525e-6
0.191, 4.542e-6
0.190, 4.553e-6
0.189, 4.562e-6
0.188, 4.576e-6
0.187, 4.581e-6
0.186, 4.590e-6
0.185, 4.597e-6
0.184, 4.599e-6
0.183, 4.605e-6
0.182, 4.604e-6
0.181, 4.606e-6
0.180, 4.610e-6
0.179, 4.600e-6
0.178, 4.602e-6
0.177, 4.599e-6
0.176, 4.592e-6
0.175, 4.590e-6
0.174, 4.582e-6
0.173, 4.576e-6
0.172, 4.572e-6
0.171, 4.559e-6
0.170, 4.551e-6
0.169, 4.543e-6
0.168, 4.531e-6
0.167, 4.522e-6
0.166, 4.508e-6
0.165, 4.496e-6
0.164, 4.487e-6
0.163, 4.469e-6
0.162, 4.458e-6
0.161, 4.446e-6
0.160, 4.430e-6
0.159, 4.417e-6
0.158, 4.402e-6
0.157, 4.385e-6
0.156, 4.373e-6
0.155, 4.355e-6
0.154, 4.340e-6
0.153, 4.325e-6
0.152, 4.307e-6
0.151, 4.292e-6
0.150, 4.274e-6
0.149, 4.258e-6
0.148, 4.245e-6
0.147, 4.225e-6
0.146, 4.209e-6
0.145, 4.194e-6
0.144, 4.175e-6
0.143, 4.161e-6
0.142, 4.143e-6
0.141, 4.125e-6
0.140, 4.111e-6
0.139, 4.093e-6
0.138, 4.076e-6
0.137, 4.061e-6
0.136, 4.044e-6
0.135, 4.029e-6
0.134, 4.013e-6
0.133, 3.996e-6
0.132, 3.982e-6
0.131, 3.963e-6
0.130, 3.949e-6
0.129, 3.934e-6
0.128, 3.915e-6
0.127, 3.902e-6
0.126, 3.886e-6
0.125, 3.870e-6
0.124, 3.857e-6
0.123, 3.840e-6
0.122, 3.825e-6
0.121, 3.812e-6
0.120, 3.796e-6
0.119, 3.782e-6
0.118, 3.767e-6
0.117, 3.753e-6
0.116, 3.741e-6
0.115, 3.723e-6
0.114, 3.711e-6
0.113, 3.698e-6
0.112, 3.682e-6
0.111, 3.670e-6
0.110, 3.656e-6
0.109, 3.643e-6
0.108, 3.631e-6
0.107, 3.616e-6
0.106, 3.603e-6
0.105, 3.592e-6
0.104, 3.578e-6
0.103, 3.567e-6
0.102, 3.554e-6
0.101, 3.541e-6
0.100, 3.530e-6
0.099, 3.516e-6
0.098, 3.504e-6
0.097, 3.494e-6
0.096, 3.481e-6
0.095, 3.470e-6
0.094, 3.458e-6
0.093, 3.446e-6
0.092, 3.437e-6
0.091, 3.424e-6
0.090, 3.413e-6
0.089, 3.404e-6
0.088, 3.391e-6
0.087, 3.381e-6
0.086, 3.371e-6
0.085, 3.360e-6
0.084, 3.351e-6
0.083, 3.339e-6
0.082, 3.330e-6
0.081, 3.321e-6
0.080, 3.309e-6
0.079, 3.301e-6
0.078, 3.291e-6
0.077, 3.280e-6
0.076, 3.273e-6
0.075, 3.262e-6
0.074, 3.253e-6
0.073, 3.245e-6
0.072, 3.235e-6
0.071, 3.227e-6
0.070, 3.218e-6
0.069, 3.209e-6
0.068, 3.202e-6
0.067, 3.191e-6
0.066, 3.184e-6
0.065, 3.176e-6
0.064, 3.166e-6
0.063, 3.160e-6
0.062, 3.151e-6
0.061, 3.143e-6
0.060, 3.137e-6
0.059, 3.128e-6
0.058, 3.121e-6
0.057, 3.114e-6
0.056, 3.106e-6
0.055, 3.099e-6
0.054, 3.092e-6
0.053, 3.085e-6
0.052, 3.079e-6
0.051, 3.070e-6
0.050, 3.063e-6
0.049, 3.058e-6
0.048, 3.050e-6
0.047, 3.044e-6
0.046, 3.038e-6
0.045, 3.031e-6
0.044, 3.026e-6
0.043, 3.018e-6
0.042, 3.012e-6
0.041, 3.007e-6
0.040, 3.001e-6
0.039, 2.995e-6
0.038, 2.989e-6
0.037, 2.983e-6
0.036, 2.979e-6
0.035, 2.971e-6
0.034, 2.967e-6
0.033, 2.962e-6
0.032, 2.956e-6
0.031, 2.951e-6
0.030, 2.946e-6
0.029, 2.940e-6
0.028, 2.937e-6
0.027, 2.931e-6
0.026, 2.926e-6
0.025, 2.922e-6
0.024, 2.916e-6
0.023, 2.912e-6
0.022, 2.907e-6
0.021, 2.902e-6
0.020, 2.900e-6
0.019, 2.894e-6
0.018, 2.890e-6
0.017, 2.887e-6
0.016, 2.881e-6
0.015, 2.878e-6
0.014, 2.874e-6
0.013, 2.869e-6
0.012, 2.867e-6
0.011, 2.862e-6
0.010, 2.858e-6
0.009, 2.856e-6
0.008, 2.852e-6
0.007, 2.848e-6
0.006, 2.845e-6
0.005, 2.841e-6
0.004, 2.839e-6
0.003, 2.834e-6
0.002, 2.832e-6
0.001, 2.829e-6
0.000, 2.828e-6
-0.001, 2.824e-6
-0.002, 2.821e-6
-0.003, 2.817e-6
-0.004, 2.816e-6
-0.005, 2.811e-6
-0.006, 2.809e-6
-0.007, 2.808e-6
-0.008, 2.804e-6
-0.009, 2.802e-6
-0.010, 2.799e-6
-0.011, 2.797e-6
-0.012, 2.796e-6
-0.013, 2.791e-6
-0.014, 2.790e-6
-0.015, 2.789e-6
-0.016, 2.785e-6
-0.017, 2.784e-6
-0.018, 2.783e-6
-0.019, 2.780e-6
-0.020, 2.780e-6
-0.021, 2.777e-6
-0.022, 2.775e-6
-0.023, 2.775e-6
-0.024, 2.773e-6
-0.025, 2.771e-6
-0.026, 2.769e-6
-0.027, 2.768e-6
-0.028, 2.768e-6
-0.029, 2.765e-6
-0.030, 2.765e-6
-0.031, 2.764e-6
-0.032, 2.763e-6
-0.033, 2.762e-6
-0.034, 2.761e-6
-0.035, 2.760e-6
-0.036, 2.761e-6
-0.037, 2.759e-6
-0.038, 2.758e-6
-0.039, 2.758e-6
-0.040, 2.757e-6
-0.041, 2.757e-6
-0.042, 2.756e-6
-0.043, 2.756e-6
-0.044, 2.757e-6
-0.045, 2.755e-6
-0.046, 2.756e-6
-0.047, 2.757e-6
-0.048, 2.755e-6
-0.049, 2.756e-6
-0.050, 2.757e-6
-0.051, 2.756e-6
-0.052, 2.758e-6
-0.053, 2.756e-6
-0.054, 2.757e-6
-0.055, 2.759e-6
-0.056, 2.759e-6
-0.057, 2.760e-6
-0.058, 2.761e-6
-0.059, 2.761e-6
-0.060, 2.763e-6
-0.061, 2.762e-6
-0.062, 2.764e-6
-0.063, 2.766e-6
-0.064, 2.765e-6
-0.065, 2.767e-6
-0.066, 2.769e-6
-0.067, 2.769e-6
-0.068, 2.772e-6
-0.069, 2.772e-6
-0.070, 2.774e-6
-0.071, 2.777e-6
-0.072, 2.777e-6
-0.073, 2.780e-6
-0.074, 2.781e-6
-0.075, 2.783e-6
-0.076, 2.786e-6
-0.077, 2.786e-6
-0.078, 2.789e-6
-0.079, 2.792e-6
-0.080, 2.793e-6
-0.081, 2.796e-6
-0.082, 2.799e-6
-0.083, 2.800e-6
-0.084, 2.805e-6
-0.085, 2.806e-6
-0.086, 2.808e-6
-0.087, 2.812e-6
-0.088, 2.814e-6
-0.089, 2.817e-6
-0.090, 2.820e-6
-0.091, 2.823e-6
-0.092, 2.827e-6
-0.093, 2.828e-6
-0.094, 2.833e-6
-0.095, 2.837e-6
-0.096, 2.840e-6
-0.097, 2.844e-6
-0.098, 2.847e-6
-0.099, 2.850e-6
