Apr. 7, 2019   11:54:42
Sweep-Step Functions
File: D:\process\data\ssf1.bin.txt
Data Source:  Experiment
Instrument Model:  CHI900D
Header: 
Note: 


Segment = 1
Init E (V) = 0.5
Final E (V) = -0.1
Scan Rate (V/s) = 0.1

Segment = 2
Step E (V) = -0.1
Step Time (s) = 5

Segment = 3
Init E (V) = -0.1
Final E (V) = 0.5
Scan Rate (V/s) = 0.1

Segment = 4
Step E (V) = 0.5
Step Time (s) = 5

Segment = 5
Init E (V) = 0.5
Final E (V) = -0.2
Scan Rate (V/s) = 10

Segment = 6
Step E (V) = -0.2
Step Time (s) = 5

Segment = 7
Init E (V) = -0.2
Final E (V) = 0.5
Scan Rate (V/s) = 10

Segment = 8
Step E (V) = 0.5
Step Time (s) = 2

Segment = 9
Init E (V) = 0.5
Final E (V) = -0.1
Scan Rate (V/s) = 1

Segment = 11
Init E (V) = -0.1
Final E (V) = 0.5
Scan Rate (V/s) = 0.5

Sweep Smpl Int (V) = 0.001
Step Smpl Int (s) = 0.004
Quiet Time (sec) = 5
Sensitivity (A/V) = 1e-5

Potential/V, i/A

4.990e-1, -8.954e-7
4.980e-1, -8.497e-7
4.970e-1, -8.249e-7
4.960e-1, -8.051e-7
4.950e-1, -7.908e-7
4.940e-1, -7.715e-7
4.930e-1, -7.564e-7
4.920e-1, -7.485e-7
4.910e-1, -7.346e-7
4.900e-1, -7.228e-7
4.890e-1, -7.135e-7
4.880e-1, -7.011e-7
4.870e-1, -6.922e-7
4.860e-1, -6.838e-7
4.850e-1, -6.742e-7
4.840e-1, -6.668e-7
4.830e-1, -6.583e-7
4.820e-1, -6.495e-7
4.810e-1, -6.397e-7
4.800e-1, -6.342e-7
4.790e-1, -6.282e-7
4.780e-1, -6.221e-7
4.770e-1, -6.124e-7
4.760e-1, -6.077e-7
4.750e-1, -5.998e-7
4.740e-1, -5.941e-7
4.730e-1, -5.892e-7
4.720e-1, -5.813e-7
4.710e-1, -5.765e-7
4.700e-1, -5.695e-7
4.690e-1, -5.651e-7
4.680e-1, -5.602e-7
4.670e-1, -5.538e-7
4.660e-1, -5.490e-7
4.650e-1, -5.442e-7
4.640e-1, -5.390e-7
4.630e-1, -5.332e-7
4.620e-1, -5.286e-7
4.610e-1, -5.210e-7
4.600e-1, -5.188e-7
4.590e-1, -5.132e-7
4.580e-1, -5.067e-7
4.570e-1, -5.030e-7
4.560e-1, -4.973e-7
4.550e-1, -4.955e-7
4.540e-1, -4.896e-7
4.530e-1, -4.844e-7
4.520e-1, -4.834e-7
4.510e-1, -4.778e-7
4.500e-1, -4.735e-7
4.490e-1, -4.674e-7
4.480e-1, -4.636e-7
4.470e-1, -4.595e-7
4.460e-1, -4.559e-7
4.450e-1, -4.497e-7
4.440e-1, -4.497e-7
4.430e-1, -4.430e-7
4.420e-1, -4.392e-7
4.410e-1, -4.367e-7
4.400e-1, -4.290e-7
4.390e-1, -4.293e-7
4.380e-1, -4.262e-7
4.370e-1, -4.189e-7
4.360e-1, -4.169e-7
4.350e-1, -4.153e-7
4.340e-1, -4.096e-7
4.330e-1, -4.055e-7
4.320e-1, -4.012e-7
4.310e-1, -3.996e-7
4.300e-1, -3.964e-7
4.290e-1, -3.923e-7
4.280e-1, -3.897e-7
4.270e-1, -3.870e-7
4.260e-1, -3.826e-7
4.250e-1, -3.802e-7
4.240e-1, -3.748e-7
4.230e-1, -3.719e-7
4.220e-1, -3.723e-7
4.210e-1, -3.649e-7
4.200e-1, -3.641e-7
4.190e-1, -3.598e-7
4.180e-1, -3.558e-7
4.170e-1, -3.533e-7
4.160e-1, -3.492e-7
4.150e-1, -3.477e-7
4.140e-1, -3.442e-7
4.130e-1, -3.431e-7
4.120e-1, -3.390e-7
4.110e-1, -3.353e-7
4.100e-1, -3.309e-7
4.090e-1, -3.269e-7
4.080e-1, -3.243e-7
4.070e-1, -3.196e-7
4.060e-1, -3.200e-7
4.050e-1, -3.127e-7
4.040e-1, -3.121e-7
4.030e-1, -3.077e-7
4.020e-1, -3.044e-7
4.010e-1, -3.029e-7
4.000e-1, -2.970e-7
3.990e-1, -2.993e-7
3.980e-1, -2.934e-7
3.970e-1, -2.881e-7
3.960e-1, -2.913e-7
3.950e-1, -2.842e-7
3.940e-1, -2.842e-7
3.930e-1, -2.810e-7
3.920e-1, -2.759e-7
3.910e-1, -2.753e-7
3.900e-1, -2.716e-7
3.890e-1, -2.657e-7
3.880e-1, -2.649e-7
3.870e-1, -2.614e-7
3.860e-1, -2.569e-7
3.850e-1, -2.577e-7
3.840e-1, -2.515e-7
3.830e-1, -2.514e-7
3.820e-1, -2.482e-7
3.810e-1, -2.415e-7
3.800e-1, -2.417e-7
3.790e-1, -2.392e-7
3.780e-1, -2.344e-7
3.770e-1, -2.308e-7
3.760e-1, -2.290e-7
3.750e-1, -2.262e-7
3.740e-1, -2.241e-7
3.730e-1, -2.177e-7
3.720e-1, -2.139e-7
3.710e-1, -2.151e-7
3.700e-1, -2.089e-7
3.690e-1, -2.071e-7
3.680e-1, -2.017e-7
3.670e-1, -1.996e-7
3.660e-1, -1.959e-7
3.650e-1, -1.900e-7
3.640e-1, -1.902e-7
3.630e-1, -1.850e-7
3.620e-1, -1.826e-7
3.610e-1, -1.780e-7
3.600e-1, -1.724e-7
3.590e-1, -1.730e-7
3.580e-1, -1.708e-7
3.570e-1, -1.627e-7
3.560e-1, -1.616e-7
3.550e-1, -1.594e-7
3.540e-1, -1.546e-7
3.530e-1, -1.502e-7
3.520e-1, -1.465e-7
3.510e-1, -1.439e-7
3.500e-1, -1.384e-7
3.490e-1, -1.348e-7
3.480e-1, -1.326e-7
3.470e-1, -1.284e-7
3.460e-1, -1.228e-7
3.450e-1, -1.220e-7
3.440e-1, -1.124e-7
3.430e-1, -1.125e-7
3.420e-1, -1.104e-7
3.410e-1, -1.015e-7
3.400e-1, -9.845e-8
3.390e-1, -9.401e-8
3.380e-1, -8.675e-8
3.370e-1, -8.246e-8
3.360e-1, -7.466e-8
3.350e-1, -7.489e-8
3.340e-1, -6.864e-8
3.330e-1, -5.993e-8
3.320e-1, -5.752e-8
3.310e-1, -5.138e-8
3.300e-1, -4.282e-8
3.290e-1, -3.955e-8
3.280e-1, -3.581e-8
3.270e-1, -2.775e-8
3.260e-1, -2.445e-8
3.250e-1, -1.654e-8
3.240e-1, -1.072e-8
3.230e-1, -4.778e-9
3.220e-1, 3.667e-9
3.210e-1, 1.020e-8
3.200e-1, 1.628e-8
3.190e-1, 2.169e-8
3.180e-1, 3.021e-8
3.170e-1, 4.113e-8
3.160e-1, 4.441e-8
3.150e-1, 5.605e-8
3.140e-1, 6.194e-8
3.130e-1, 7.168e-8
3.120e-1, 8.259e-8
3.110e-1, 8.936e-8
3.100e-1, 9.760e-8
3.090e-1, 1.102e-7
3.080e-1, 1.195e-7
3.070e-1, 1.258e-7
3.060e-1, 1.391e-7
3.050e-1, 1.494e-7
3.040e-1, 1.606e-7
3.030e-1, 1.690e-7
3.020e-1, 1.831e-7
3.010e-1, 1.955e-7
3.000e-1, 2.046e-7
2.990e-1, 2.183e-7
2.980e-1, 2.315e-7
2.970e-1, 2.445e-7
2.960e-1, 2.605e-7
2.950e-1, 2.713e-7
2.940e-1, 2.867e-7
2.930e-1, 3.030e-7
2.920e-1, 3.173e-7
2.910e-1, 3.357e-7
2.900e-1, 3.498e-7
2.890e-1, 3.681e-7
2.880e-1, 3.884e-7
2.870e-1, 4.009e-7
2.860e-1, 4.228e-7
2.850e-1, 4.424e-7
2.840e-1, 4.576e-7
2.830e-1, 4.822e-7
2.820e-1, 5.024e-7
2.810e-1, 5.191e-7
2.800e-1, 5.470e-7
2.790e-1, 5.655e-7
2.780e-1, 5.898e-7
2.770e-1, 6.150e-7
2.760e-1, 6.390e-7
2.750e-1, 6.628e-7
2.740e-1, 6.895e-7
2.730e-1, 7.174e-7
2.720e-1, 7.473e-7
2.710e-1, 7.707e-7
2.700e-1, 8.021e-7
2.690e-1, 8.339e-7
2.680e-1, 8.606e-7
2.670e-1, 8.962e-7
2.660e-1, 9.276e-7
2.650e-1, 9.608e-7
2.640e-1, 9.965e-7
2.630e-1, 1.027e-6
2.620e-1, 1.066e-6
2.610e-1, 1.104e-6
2.600e-1, 1.138e-6
2.590e-1, 1.179e-6
2.580e-1, 1.217e-6
2.570e-1, 1.257e-6
2.560e-1, 1.300e-6
2.550e-1, 1.336e-6
2.540e-1, 1.383e-6
2.530e-1, 1.428e-6
2.520e-1, 1.467e-6
2.510e-1, 1.515e-6
2.500e-1, 1.559e-6
2.490e-1, 1.604e-6
2.480e-1, 1.655e-6
2.470e-1, 1.701e-6
2.460e-1, 1.750e-6
2.450e-1, 1.803e-6
2.440e-1, 1.849e-6
2.430e-1, 1.901e-6
2.420e-1, 1.952e-6
2.410e-1, 2.001e-6
2.400e-1, 2.060e-6
2.390e-1, 2.104e-6
2.380e-1, 2.162e-6
2.370e-1, 2.218e-6
2.360e-1, 2.269e-6
2.350e-1, 2.325e-6
2.340e-1, 2.379e-6
2.330e-1, 2.434e-6
2.320e-1, 2.489e-6
2.310e-1, 2.543e-6
2.300e-1, 2.596e-6
2.290e-1, 2.657e-6
2.280e-1, 2.707e-6
2.270e-1, 2.764e-6
2.260e-1, 2.816e-6
2.250e-1, 2.871e-6
2.240e-1, 2.933e-6
2.230e-1, 2.976e-6
2.220e-1, 3.035e-6
2.210e-1, 3.087e-6
2.200e-1, 3.134e-6
2.190e-1, 3.190e-6
2.180e-1, 3.241e-6
2.170e-1, 3.286e-6
2.160e-1, 3.340e-6
2.150e-1, 3.387e-6
2.140e-1, 3.428e-6
2.130e-1, 3.480e-6
2.120e-1, 3.523e-6
2.110e-1, 3.566e-6
2.100e-1, 3.607e-6
2.090e-1, 3.650e-6
2.080e-1, 3.693e-6
2.070e-1, 3.722e-6
2.060e-1, 3.764e-6
2.050e-1, 3.802e-6
2.040e-1, 3.836e-6
2.030e-1, 3.871e-6
2.020e-1, 3.898e-6
2.010e-1, 3.929e-6
2.000e-1, 3.961e-6
1.990e-1, 3.984e-6
1.980e-1, 4.009e-6
1.970e-1, 4.039e-6
1.960e-1, 4.056e-6
1.950e-1, 4.076e-6
1.940e-1, 4.097e-6
1.930e-1, 4.115e-6
1.920e-1, 4.134e-6
1.910e-1, 4.141e-6
1.900e-1, 4.160e-6
1.890e-1, 4.173e-6
1.880e-1, 4.179e-6
1.870e-1, 4.192e-6
1.860e-1, 4.200e-6
1.850e-1, 4.205e-6
1.840e-1, 4.215e-6
1.830e-1, 4.216e-6
1.820e-1, 4.216e-6
1.810e-1, 4.222e-6
1.800e-1, 4.220e-6
1.790e-1, 4.220e-6
1.780e-1, 4.215e-6
1.770e-1, 4.214e-6
1.760e-1, 4.215e-6
1.750e-1, 4.203e-6
1.740e-1, 4.201e-6
1.730e-1, 4.198e-6
1.720e-1, 4.186e-6
1.710e-1, 4.180e-6
1.700e-1, 4.172e-6
1.690e-1, 4.160e-6
1.680e-1, 4.152e-6
1.670e-1, 4.143e-6
1.660e-1, 4.128e-6
1.650e-1, 4.121e-6
1.640e-1, 4.106e-6
1.630e-1, 4.094e-6
1.620e-1, 4.081e-6
1.610e-1, 4.067e-6
1.600e-1, 4.054e-6
1.590e-1, 4.037e-6
1.580e-1, 4.025e-6
1.570e-1, 4.009e-6
1.560e-1, 3.993e-6
1.550e-1, 3.978e-6
1.540e-1, 3.964e-6
1.530e-1, 3.945e-6
1.520e-1, 3.934e-6
1.510e-1, 3.916e-6
1.500e-1, 3.896e-6
1.490e-1, 3.884e-6
1.480e-1, 3.866e-6
1.470e-1, 3.850e-6
1.460e-1, 3.833e-6
1.450e-1, 3.818e-6
1.440e-1, 3.802e-6
1.430e-1, 3.780e-6
1.420e-1, 3.765e-6
1.410e-1, 3.750e-6
1.400e-1, 3.729e-6
1.390e-1, 3.717e-6
1.380e-1, 3.698e-6
1.370e-1, 3.681e-6
1.360e-1, 3.667e-6
1.350e-1, 3.650e-6
1.340e-1, 3.633e-6
1.330e-1, 3.618e-6
1.320e-1, 3.599e-6
1.310e-1, 3.585e-6
1.300e-1, 3.568e-6
1.290e-1, 3.551e-6
1.280e-1, 3.539e-6
1.270e-1, 3.517e-6
1.260e-1, 3.504e-6
1.250e-1, 3.492e-6
1.240e-1, 3.474e-6
1.230e-1, 3.460e-6
1.220e-1, 3.444e-6
1.210e-1, 3.429e-6
1.200e-1, 3.416e-6
1.190e-1, 3.398e-6
1.180e-1, 3.382e-6
1.170e-1, 3.369e-6
1.160e-1, 3.354e-6
1.150e-1, 3.339e-6
1.140e-1, 3.325e-6
1.130e-1, 3.312e-6
1.120e-1, 3.296e-6
1.110e-1, 3.282e-6
1.100e-1, 3.268e-6
1.090e-1, 3.258e-6
1.080e-1, 3.240e-6
1.070e-1, 3.228e-6
1.060e-1, 3.217e-6
1.050e-1, 3.200e-6
1.040e-1, 3.189e-6
1.030e-1, 3.175e-6
1.020e-1, 3.162e-6
1.010e-1, 3.152e-6
1.000e-1, 3.137e-6
9.900e-2, 3.125e-6
9.800e-2, 3.113e-6
9.700e-2, 3.098e-6
9.600e-2, 3.089e-6
9.500e-2, 3.076e-6
9.400e-2, 3.063e-6
9.300e-2, 3.054e-6
9.200e-2, 3.039e-6
9.100e-2, 3.028e-6
9.000e-2, 3.018e-6
8.900e-2, 3.005e-6
8.800e-2, 2.996e-6
8.700e-2, 2.983e-6
8.600e-2, 2.973e-6
8.500e-2, 2.964e-6
8.400e-2, 2.950e-6
8.300e-2, 2.941e-6
8.200e-2, 2.931e-6
8.100e-2, 2.920e-6
8.000e-2, 2.908e-6
7.900e-2, 2.898e-6
7.800e-2, 2.890e-6
7.700e-2, 2.880e-6
7.600e-2, 2.868e-6
7.500e-2, 2.859e-6
7.400e-2, 2.850e-6
7.300e-2, 2.839e-6
7.200e-2, 2.831e-6
7.100e-2, 2.821e-6
7.000e-2, 2.811e-6
6.900e-2, 2.803e-6
6.800e-2, 2.793e-6
6.700e-2, 2.785e-6
6.600e-2, 2.775e-6
6.500e-2, 2.768e-6
6.400e-2, 2.759e-6
6.300e-2, 2.746e-6
6.200e-2, 2.740e-6
6.100e-2, 2.735e-6
6.000e-2, 2.722e-6
5.900e-2, 2.715e-6
5.800e-2, 2.708e-6
5.700e-2, 2.700e-6
5.600e-2, 2.693e-6
5.500e-2, 2.684e-6
5.400e-2, 2.675e-6
5.300e-2, 2.670e-6
5.200e-2, 2.660e-6
5.100e-2, 2.650e-6
5.000e-2, 2.647e-6
4.900e-2, 2.637e-6
4.800e-2, 2.631e-6
4.700e-2, 2.621e-6
4.600e-2, 2.615e-6
4.500e-2, 2.610e-6
4.400e-2, 2.602e-6
4.300e-2, 2.594e-6
4.200e-2, 2.589e-6
4.100e-2, 2.580e-6
4.000e-2, 2.577e-6
3.900e-2, 2.569e-6
3.800e-2, 2.560e-6
3.700e-2, 2.557e-6
3.600e-2, 2.549e-6
3.500e-2, 2.542e-6
3.400e-2, 2.538e-6
3.300e-2, 2.533e-6
3.200e-2, 2.526e-6
3.100e-2, 2.516e-6
3.000e-2, 2.513e-6
2.900e-2, 2.507e-6
2.800e-2, 2.498e-6
2.700e-2, 2.496e-6
2.600e-2, 2.486e-6
2.500e-2, 2.480e-6
2.400e-2, 2.477e-6
2.300e-2, 2.470e-6
2.200e-2, 2.464e-6
2.100e-2, 2.461e-6
2.000e-2, 2.456e-6
1.900e-2, 2.450e-6
1.800e-2, 2.446e-6
1.700e-2, 2.438e-6
1.600e-2, 2.437e-6
1.500e-2, 2.428e-6
1.400e-2, 2.422e-6
1.300e-2, 2.421e-6
1.200e-2, 2.411e-6
1.100e-2, 2.408e-6
1.000e-2, 2.404e-6
9.003e-3, 2.398e-6
8.003e-3, 2.394e-6
7.003e-3, 2.390e-6
6.003e-3, 2.383e-6
5.003e-3, 2.381e-6
4.003e-3, 2.377e-6
3.003e-3, 2.370e-6
2.003e-3, 2.366e-6
1.003e-3, 2.362e-6
2.887e-6, 2.359e-6
-9.971e-4, 2.354e-6
-1.997e-3, 2.350e-6
-2.997e-3, 2.349e-6
-3.997e-3, 2.339e-6
-4.997e-3, 2.339e-6
-5.997e-3, 2.334e-6
-6.997e-3, 2.329e-6
-7.997e-3, 2.324e-6
-8.997e-3, 2.321e-6
-9.997e-3, 2.318e-6
-1.100e-2, 2.316e-6
-1.200e-2, 2.308e-6
-1.300e-2, 2.305e-6
-1.400e-2, 2.303e-6
-1.500e-2, 2.299e-6
-1.600e-2, 2.298e-6
-1.700e-2, 2.291e-6
-1.800e-2, 2.286e-6
-1.900e-2, 2.286e-6
-2.000e-2, 2.280e-6
-2.100e-2, 2.278e-6
-2.200e-2, 2.273e-6
-2.300e-2, 2.270e-6
-2.400e-2, 2.269e-6
-2.500e-2, 2.263e-6
-2.600e-2, 2.259e-6
-2.700e-2, 2.258e-6
-2.800e-2, 2.255e-6
-2.900e-2, 2.252e-6
-3.000e-2, 2.249e-6
-3.100e-2, 2.248e-6
-3.200e-2, 2.244e-6
-3.300e-2, 2.239e-6
-3.400e-2, 2.238e-6
-3.500e-2, 2.236e-6
-3.600e-2, 2.231e-6
-3.700e-2, 2.230e-6
-3.800e-2, 2.227e-6
-3.900e-2, 2.222e-6
-4.000e-2, 2.221e-6
-4.100e-2, 2.218e-6
-4.200e-2, 2.216e-6
-4.300e-2, 2.214e-6
-4.400e-2, 2.210e-6
-4.500e-2, 2.208e-6
-4.600e-2, 2.206e-6
-4.700e-2, 2.202e-6
-4.800e-2, 2.202e-6
-4.900e-2, 2.198e-6
-5.000e-2, 2.195e-6
-5.100e-2, 2.196e-6
-5.200e-2, 2.188e-6
-5.300e-2, 2.189e-6
-5.400e-2, 2.187e-6
-5.500e-2, 2.185e-6
-5.600e-2, 2.182e-6
-5.700e-2, 2.179e-6
-5.800e-2, 2.178e-6
-5.900e-2, 2.176e-6
-6.000e-2, 2.173e-6
-6.100e-2, 2.171e-6
-6.200e-2, 2.168e-6
-6.300e-2, 2.166e-6
-6.400e-2, 2.168e-6
-6.500e-2, 2.161e-6
-6.600e-2, 2.162e-6
-6.700e-2, 2.165e-6
-6.800e-2, 2.158e-6
-6.900e-2, 2.157e-6
-7.000e-2, 2.155e-6
-7.100e-2, 2.154e-6
-7.200e-2, 2.153e-6
-7.300e-2, 2.150e-6
-7.400e-2, 2.151e-6
-7.500e-2, 2.148e-6
-7.600e-2, 2.147e-6
-7.700e-2, 2.144e-6
-7.800e-2, 2.145e-6
-7.900e-2, 2.144e-6
-8.000e-2, 2.143e-6
-8.100e-2, 2.140e-6
-8.200e-2, 2.139e-6
-8.300e-2, 2.138e-6
-8.400e-2, 2.136e-6
-8.500e-2, 2.136e-6
-8.600e-2, 2.133e-6
-8.700e-2, 2.132e-6
-8.800e-2, 2.134e-6
-8.900e-2, 2.131e-6
-9.000e-2, 2.128e-6
-9.100e-2, 2.131e-6
-9.200e-2, 2.128e-6
-9.300e-2, 2.127e-6
-9.400e-2, 2.125e-6
-9.500e-2, 2.125e-6
-9.600e-2, 2.127e-6
-9.700e-2, 2.121e-6
-9.800e-2, 2.122e-6
-9.900e-2, 2.124e-6
-1.000e-1, 2.124e-6
4.000e-3, 2.050e-6
8.000e-3, 2.036e-6
1.200e-2, 2.026e-6
1.600e-2, 2.014e-6
2.000e-2, 2.007e-6
2.400e-2, 1.999e-6
2.800e-2, 1.989e-6
3.200e-2, 1.986e-6
3.600e-2, 1.977e-6
4.000e-2, 1.972e-6
4.400e-2, 1.964e-6
4.800e-2, 1.961e-6
5.200e-2, 1.952e-6
5.600e-2, 1.946e-6
6.000e-2, 1.944e-6
6.400e-2, 1.937e-6
6.800e-2, 1.929e-6
7.200e-2, 1.925e-6
7.600e-2, 1.922e-6
8.000e-2, 1.916e-6
8.400e-2, 1.914e-6
8.800e-2, 1.906e-6
9.200e-2, 1.903e-6
9.600e-2, 1.898e-6
1.000e-1, 1.892e-6
1.040e-1, 1.890e-6
1.080e-1, 1.884e-6
1.120e-1, 1.879e-6
1.160e-1, 1.878e-6
1.200e-1, 1.875e-6
1.240e-1, 1.873e-6
1.280e-1, 1.865e-6
1.320e-1, 1.865e-6
1.360e-1, 1.859e-6
1.400e-1, 1.856e-6
1.440e-1, 1.854e-6
1.480e-1, 1.848e-6
1.520e-1, 1.849e-6
1.560e-1, 1.843e-6
1.600e-1, 1.839e-6
1.640e-1, 1.839e-6
1.680e-1, 1.830e-6
1.720e-1, 1.831e-6
1.760e-1, 1.827e-6
1.800e-1, 1.823e-6
1.840e-1, 1.822e-6
1.880e-1, 1.814e-6
1.920e-1, 1.812e-6
1.960e-1, 1.810e-6
2.000e-1, 1.806e-6
2.040e-1, 1.805e-6
2.080e-1, 1.799e-6
2.120e-1, 1.799e-6
2.160e-1, 1.793e-6
2.200e-1, 1.792e-6
2.240e-1, 1.789e-6
2.280e-1, 1.784e-6
2.320e-1, 1.785e-6
2.360e-1, 1.781e-6
2.400e-1, 1.774e-6
2.440e-1, 1.777e-6
2.480e-1, 1.772e-6
2.520e-1, 1.770e-6
2.560e-1, 1.768e-6
2.600e-1, 1.764e-6
2.640e-1, 1.763e-6
2.680e-1, 1.760e-6
2.720e-1, 1.757e-6
2.760e-1, 1.755e-6
2.800e-1, 1.755e-6
2.840e-1, 1.750e-6
2.880e-1, 1.748e-6
2.920e-1, 1.746e-6
2.960e-1, 1.742e-6
3.000e-1, 1.738e-6
3.040e-1, 1.739e-6
3.080e-1, 1.734e-6
3.120e-1, 1.732e-6
3.160e-1, 1.729e-6
3.200e-1, 1.726e-6
3.240e-1, 1.725e-6
3.280e-1, 1.723e-6
3.320e-1, 1.720e-6
3.360e-1, 1.719e-6
3.400e-1, 1.715e-6
3.440e-1, 1.712e-6
3.480e-1, 1.712e-6
3.520e-1, 1.710e-6
3.560e-1, 1.703e-6
3.600e-1, 1.703e-6
3.640e-1, 1.701e-6
3.680e-1, 1.696e-6
3.720e-1, 1.697e-6
3.760e-1, 1.696e-6
3.800e-1, 1.693e-6
3.840e-1, 1.693e-6
3.880e-1, 1.689e-6
3.920e-1, 1.688e-6
3.960e-1, 1.687e-6
4.000e-1, 1.681e-6
4.040e-1, 1.680e-6
4.080e-1, 1.679e-6
4.120e-1, 1.678e-6
4.160e-1, 1.674e-6
4.200e-1, 1.671e-6
4.240e-1, 1.669e-6
4.280e-1, 1.669e-6
4.320e-1, 1.669e-6
4.360e-1, 1.664e-6
4.400e-1, 1.661e-6
4.440e-1, 1.659e-6
4.480e-1, 1.658e-6
4.520e-1, 1.657e-6
4.560e-1, 1.654e-6
4.600e-1, 1.651e-6
4.640e-1, 1.651e-6
4.680e-1, 1.648e-6
4.720e-1, 1.642e-6
4.760e-1, 1.644e-6
4.800e-1, 1.641e-6
4.840e-1, 1.637e-6
4.880e-1, 1.640e-6
4.920e-1, 1.637e-6
4.960e-1, 1.638e-6
5.000e-1, 1.631e-6
5.040e-1, 1.633e-6
5.080e-1, 1.629e-6
5.120e-1, 1.628e-6
5.160e-1, 1.625e-6
5.200e-1, 1.622e-6
5.240e-1, 1.624e-6
5.280e-1, 1.620e-6
5.320e-1, 1.619e-6
5.360e-1, 1.622e-6
5.400e-1, 1.613e-6
5.440e-1, 1.614e-6
5.480e-1, 1.616e-6
5.520e-1, 1.609e-6
5.560e-1, 1.610e-6
5.600e-1, 1.604e-6
5.640e-1, 1.606e-6
5.680e-1, 1.601e-6
5.720e-1, 1.600e-6
5.760e-1, 1.600e-6
5.800e-1, 1.596e-6
5.840e-1, 1.597e-6
5.880e-1, 1.593e-6
5.920e-1, 1.592e-6
5.960e-1, 1.591e-6
6.000e-1, 1.586e-6
6.040e-1, 1.589e-6
6.080e-1, 1.586e-6
6.120e-1, 1.581e-6
6.160e-1, 1.584e-6
6.200e-1, 1.582e-6
6.240e-1, 1.576e-6
6.280e-1, 1.578e-6
6.320e-1, 1.576e-6
6.360e-1, 1.576e-6
6.400e-1, 1.575e-6
6.440e-1, 1.573e-6
6.480e-1, 1.570e-6
6.520e-1, 1.570e-6
6.560e-1, 1.567e-6
6.600e-1, 1.565e-6
6.640e-1, 1.568e-6
6.680e-1, 1.564e-6
6.720e-1, 1.558e-6
6.760e-1, 1.558e-6
6.800e-1, 1.556e-6
6.840e-1, 1.555e-6
6.880e-1, 1.558e-6
6.920e-1, 1.551e-6
6.960e-1, 1.553e-6
7.000e-1, 1.549e-6
7.040e-1, 1.548e-6
7.080e-1, 1.547e-6
7.120e-1, 1.543e-6
7.160e-1, 1.543e-6
7.200e-1, 1.541e-6
7.240e-1, 1.542e-6
7.280e-1, 1.536e-6
7.320e-1, 1.537e-6
7.360e-1, 1.536e-6
7.400e-1, 1.531e-6
7.440e-1, 1.533e-6
7.480e-1, 1.533e-6
7.520e-1, 1.530e-6
7.560e-1, 1.529e-6
7.600e-1, 1.529e-6
7.640e-1, 1.527e-6
7.680e-1, 1.527e-6
7.720e-1, 1.522e-6
7.760e-1, 1.522e-6
7.800e-1, 1.522e-6
7.840e-1, 1.521e-6
7.880e-1, 1.519e-6
7.920e-1, 1.519e-6
7.960e-1, 1.515e-6
8.000e-1, 1.514e-6
8.040e-1, 1.518e-6
8.080e-1, 1.512e-6
8.120e-1, 1.508e-6
8.160e-1, 1.508e-6
8.200e-1, 1.506e-6
8.240e-1, 1.508e-6
8.280e-1, 1.506e-6
8.320e-1, 1.501e-6
8.360e-1, 1.503e-6
8.400e-1, 1.501e-6
8.440e-1, 1.498e-6
8.480e-1, 1.498e-6
8.520e-1, 1.495e-6
8.560e-1, 1.494e-6
8.600e-1, 1.492e-6
8.640e-1, 1.493e-6
8.680e-1, 1.493e-6
8.720e-1, 1.488e-6
8.760e-1, 1.491e-6
8.800e-1, 1.487e-6
8.840e-1, 1.487e-6
8.880e-1, 1.487e-6
8.920e-1, 1.482e-6
8.960e-1, 1.483e-6
9.000e-1, 1.481e-6
9.040e-1, 1.481e-6
9.080e-1, 1.483e-6
9.120e-1, 1.474e-6
9.160e-1, 1.477e-6
9.200e-1, 1.477e-6
9.240e-1, 1.474e-6
9.280e-1, 1.474e-6
9.320e-1, 1.471e-6
9.360e-1, 1.471e-6
9.400e-1, 1.466e-6
9.440e-1, 1.467e-6
9.480e-1, 1.468e-6
9.520e-1, 1.464e-6
9.560e-1, 1.463e-6
9.600e-1, 1.461e-6
9.640e-1, 1.461e-6
9.680e-1, 1.462e-6
9.720e-1, 1.459e-6
9.760e-1, 1.459e-6
9.800e-1, 1.456e-6
9.840e-1, 1.450e-6
9.880e-1, 1.456e-6
9.920e-1, 1.453e-6
9.960e-1, 1.449e-6
1.000e+0, 1.450e-6
1.004e+0, 1.447e-6
1.008e+0, 1.450e-6
1.012e+0, 1.448e-6
1.016e+0, 1.447e-6
1.020e+0, 1.446e-6
1.024e+0, 1.444e-6
1.028e+0, 1.445e-6
1.032e+0, 1.442e-6
1.036e+0, 1.442e-6
1.040e+0, 1.440e-6
1.044e+0, 1.438e-6
1.048e+0, 1.444e-6
1.052e+0, 1.434e-6
1.056e+0, 1.437e-6
1.060e+0, 1.439e-6
1.064e+0, 1.432e-6
1.068e+0, 1.433e-6
1.072e+0, 1.430e-6
1.076e+0, 1.430e-6
1.080e+0, 1.428e-6
1.084e+0, 1.426e-6
1.088e+0, 1.428e-6
1.092e+0, 1.422e-6
1.096e+0, 1.425e-6
1.100e+0, 1.420e-6
1.104e+0, 1.422e-6
1.108e+0, 1.420e-6
1.112e+0, 1.417e-6
1.116e+0, 1.419e-6
1.120e+0, 1.417e-6
1.124e+0, 1.410e-6
1.128e+0, 1.415e-6
1.132e+0, 1.413e-6
1.136e+0, 1.410e-6
1.140e+0, 1.411e-6
1.144e+0, 1.410e-6
1.148e+0, 1.409e-6
1.152e+0, 1.409e-6
1.156e+0, 1.408e-6
1.160e+0, 1.409e-6
1.164e+0, 1.405e-6
1.168e+0, 1.404e-6
1.172e+0, 1.402e-6
1.176e+0, 1.403e-6
1.180e+0, 1.401e-6
1.184e+0, 1.400e-6
1.188e+0, 1.402e-6
1.192e+0, 1.396e-6
1.196e+0, 1.397e-6
1.200e+0, 1.401e-6
1.204e+0, 1.393e-6
1.208e+0, 1.394e-6
1.212e+0, 1.391e-6
1.216e+0, 1.392e-6
1.220e+0, 1.394e-6
1.224e+0, 1.388e-6
1.228e+0, 1.389e-6
1.232e+0, 1.388e-6
1.236e+0, 1.387e-6
1.240e+0, 1.382e-6
1.244e+0, 1.385e-6
1.248e+0, 1.384e-6
1.252e+0, 1.381e-6
1.256e+0, 1.382e-6
1.260e+0, 1.383e-6
1.264e+0, 1.379e-6
1.268e+0, 1.380e-6
1.272e+0, 1.379e-6
1.276e+0, 1.377e-6
1.280e+0, 1.379e-6
1.284e+0, 1.373e-6
1.288e+0, 1.374e-6
1.292e+0, 1.374e-6
1.296e+0, 1.371e-6
1.300e+0, 1.373e-6
1.304e+0, 1.371e-6
1.308e+0, 1.371e-6
1.312e+0, 1.368e-6
1.316e+0, 1.369e-6
1.320e+0, 1.368e-6
1.324e+0, 1.365e-6
1.328e+0, 1.364e-6
1.332e+0, 1.365e-6
1.336e+0, 1.361e-6
1.340e+0, 1.364e-6
1.344e+0, 1.360e-6
1.348e+0, 1.361e-6
1.352e+0, 1.360e-6
1.356e+0, 1.356e-6
1.360e+0, 1.358e-6
1.364e+0, 1.357e-6
1.368e+0, 1.356e-6
1.372e+0, 1.355e-6
1.376e+0, 1.353e-6
1.380e+0, 1.348e-6
1.384e+0, 1.353e-6
1.388e+0, 1.351e-6
1.392e+0, 1.346e-6
1.396e+0, 1.349e-6
1.400e+0, 1.347e-6
1.404e+0, 1.348e-6
1.408e+0, 1.346e-6
1.412e+0, 1.346e-6
1.416e+0, 1.344e-6
1.420e+0, 1.343e-6
1.424e+0, 1.344e-6
1.428e+0, 1.342e-6
1.432e+0, 1.342e-6
1.436e+0, 1.339e-6
1.440e+0, 1.337e-6
1.444e+0, 1.345e-6
1.448e+0, 1.337e-6
1.452e+0, 1.338e-6
1.456e+0, 1.337e-6
1.460e+0, 1.335e-6
1.464e+0, 1.334e-6
1.468e+0, 1.332e-6
1.472e+0, 1.331e-6
1.476e+0, 1.330e-6
1.480e+0, 1.330e-6
1.484e+0, 1.330e-6
1.488e+0, 1.329e-6
1.492e+0, 1.328e-6
1.496e+0, 1.324e-6
1.500e+0, 1.326e-6
1.504e+0, 1.326e-6
1.508e+0, 1.322e-6
1.512e+0, 1.326e-6
1.516e+0, 1.319e-6
1.520e+0, 1.318e-6
1.524e+0, 1.322e-6
1.528e+0, 1.319e-6
1.532e+0, 1.316e-6
1.536e+0, 1.318e-6
1.540e+0, 1.318e-6
1.544e+0, 1.317e-6
1.548e+0, 1.317e-6
1.552e+0, 1.317e-6
1.556e+0, 1.312e-6
1.560e+0, 1.315e-6
1.564e+0, 1.312e-6
1.568e+0, 1.312e-6
1.572e+0, 1.314e-6
1.576e+0, 1.309e-6
1.580e+0, 1.309e-6
1.584e+0, 1.311e-6
1.588e+0, 1.307e-6
1.592e+0, 1.309e-6
1.596e+0, 1.308e-6
1.600e+0, 1.307e-6
1.604e+0, 1.304e-6
1.608e+0, 1.304e-6
1.612e+0, 1.304e-6
1.616e+0, 1.302e-6
1.620e+0, 1.301e-6
1.624e+0, 1.301e-6
1.628e+0, 1.299e-6
1.632e+0, 1.301e-6
1.636e+0, 1.296e-6
1.640e+0, 1.296e-6
1.644e+0, 1.299e-6
1.648e+0, 1.294e-6
1.652e+0, 1.296e-6
1.656e+0, 1.294e-6
1.660e+0, 1.290e-6
1.664e+0, 1.293e-6
1.668e+0, 1.293e-6
1.672e+0, 1.286e-6
1.676e+0, 1.291e-6
1.680e+0, 1.289e-6
1.684e+0, 1.290e-6
1.688e+0, 1.288e-6
1.692e+0, 1.286e-6
1.696e+0, 1.289e-6
1.700e+0, 1.288e-6
1.704e+0, 1.285e-6
1.708e+0, 1.284e-6
1.712e+0, 1.284e-6
1.716e+0, 1.284e-6
1.720e+0, 1.282e-6
1.724e+0, 1.286e-6
1.728e+0, 1.281e-6
1.732e+0, 1.281e-6
1.736e+0, 1.284e-6
1.740e+0, 1.278e-6
1.744e+0, 1.279e-6
1.748e+0, 1.276e-6
1.752e+0, 1.276e-6
1.756e+0, 1.275e-6
1.760e+0, 1.276e-6
1.764e+0, 1.274e-6
1.768e+0, 1.271e-6
1.772e+0, 1.271e-6
1.776e+0, 1.270e-6
1.780e+0, 1.271e-6
1.784e+0, 1.271e-6
1.788e+0, 1.266e-6
1.792e+0, 1.269e-6
1.796e+0, 1.268e-6
1.800e+0, 1.262e-6
1.804e+0, 1.270e-6
1.808e+0, 1.265e-6
1.812e+0, 1.262e-6
1.816e+0, 1.265e-6
1.820e+0, 1.263e-6
1.824e+0, 1.264e-6
1.828e+0, 1.260e-6
1.832e+0, 1.262e-6
1.836e+0, 1.261e-6
1.840e+0, 1.262e-6
1.844e+0, 1.261e-6
1.848e+0, 1.257e-6
1.852e+0, 1.260e-6
1.856e+0, 1.258e-6
1.860e+0, 1.257e-6
1.864e+0, 1.262e-6
1.868e+0, 1.254e-6
1.872e+0, 1.256e-6
1.876e+0, 1.256e-6
1.880e+0, 1.253e-6
1.884e+0, 1.255e-6
1.888e+0, 1.249e-6
1.892e+0, 1.250e-6
1.896e+0, 1.250e-6
1.900e+0, 1.250e-6
1.904e+0, 1.250e-6
1.908e+0, 1.248e-6
1.912e+0, 1.248e-6
1.916e+0, 1.246e-6
1.920e+0, 1.246e-6
1.924e+0, 1.248e-6
1.928e+0, 1.245e-6
1.932e+0, 1.246e-6
1.936e+0, 1.243e-6
1.940e+0, 1.237e-6
1.944e+0, 1.243e-6
1.948e+0, 1.242e-6
1.952e+0, 1.237e-6
1.956e+0, 1.241e-6
1.960e+0, 1.240e-6
1.964e+0, 1.241e-6
1.968e+0, 1.240e-6
1.972e+0, 1.239e-6
1.976e+0, 1.238e-6
1.980e+0, 1.236e-6
1.984e+0, 1.240e-6
1.988e+0, 1.235e-6
1.992e+0, 1.235e-6
1.996e+0, 1.235e-6
2.000e+0, 1.232e-6
2.004e+0, 1.238e-6
2.008e+0, 1.231e-6
2.012e+0, 1.233e-6
2.016e+0, 1.234e-6
2.020e+0, 1.228e-6
2.024e+0, 1.228e-6
2.028e+0, 1.229e-6
2.032e+0, 1.227e-6
2.036e+0, 1.226e-6
2.040e+0, 1.226e-6
2.044e+0, 1.226e-6
2.048e+0, 1.225e-6
2.052e+0, 1.224e-6
2.056e+0, 1.222e-6
2.060e+0, 1.222e-6
2.064e+0, 1.222e-6
2.068e+0, 1.219e-6
2.072e+0, 1.222e-6
2.076e+0, 1.221e-6
2.080e+0, 1.214e-6
2.084e+0, 1.219e-6
2.088e+0, 1.217e-6
2.092e+0, 1.217e-6
2.096e+0, 1.218e-6
2.100e+0, 1.217e-6
2.104e+0, 1.216e-6
2.108e+0, 1.216e-6
2.112e+0, 1.216e-6
2.116e+0, 1.216e-6
2.120e+0, 1.212e-6
2.124e+0, 1.213e-6
2.128e+0, 1.212e-6
2.132e+0, 1.213e-6
2.136e+0, 1.211e-6
2.140e+0, 1.210e-6
2.144e+0, 1.213e-6
2.148e+0, 1.207e-6
2.152e+0, 1.209e-6
2.156e+0, 1.212e-6
2.160e+0, 1.205e-6
2.164e+0, 1.206e-6
2.168e+0, 1.205e-6
2.172e+0, 1.205e-6
2.176e+0, 1.206e-6
2.180e+0, 1.201e-6
2.184e+0, 1.205e-6
2.188e+0, 1.202e-6
2.192e+0, 1.203e-6
2.196e+0, 1.202e-6
2.200e+0, 1.200e-6
2.204e+0, 1.201e-6
2.208e+0, 1.199e-6
2.212e+0, 1.198e-6
2.216e+0, 1.201e-6
2.220e+0, 1.191e-6
2.224e+0, 1.198e-6
2.228e+0, 1.197e-6
2.232e+0, 1.192e-6
2.236e+0, 1.198e-6
2.240e+0, 1.194e-6
2.244e+0, 1.195e-6
2.248e+0, 1.194e-6
2.252e+0, 1.193e-6
2.256e+0, 1.195e-6
2.260e+0, 1.193e-6
2.264e+0, 1.192e-6
2.268e+0, 1.190e-6
2.272e+0, 1.192e-6
2.276e+0, 1.192e-6
2.280e+0, 1.188e-6
2.284e+0, 1.193e-6
2.288e+0, 1.188e-6
2.292e+0, 1.188e-6
2.296e+0, 1.193e-6
2.300e+0, 1.184e-6
2.304e+0, 1.188e-6
2.308e+0, 1.186e-6
2.312e+0, 1.184e-6
2.316e+0, 1.185e-6
2.320e+0, 1.183e-6
2.324e+0, 1.183e-6
2.328e+0, 1.183e-6
2.332e+0, 1.183e-6
2.336e+0, 1.180e-6
2.340e+0, 1.180e-6
2.344e+0, 1.181e-6
2.348e+0, 1.178e-6
2.352e+0, 1.179e-6
2.356e+0, 1.182e-6
2.360e+0, 1.174e-6
2.364e+0, 1.177e-6
2.368e+0, 1.178e-6
2.372e+0, 1.171e-6
2.376e+0, 1.179e-6
2.380e+0, 1.175e-6
2.384e+0, 1.176e-6
2.388e+0, 1.173e-6
2.392e+0, 1.174e-6
2.396e+0, 1.175e-6
2.400e+0, 1.175e-6
2.404e+0, 1.173e-6
2.408e+0, 1.172e-6
2.412e+0, 1.172e-6
2.416e+0, 1.173e-6
2.420e+0, 1.170e-6
2.424e+0, 1.174e-6
2.428e+0, 1.170e-6
2.432e+0, 1.168e-6
2.436e+0, 1.172e-6
2.440e+0, 1.167e-6
2.444e+0, 1.168e-6
2.448e+0, 1.165e-6
2.452e+0, 1.163e-6
2.456e+0, 1.163e-6
2.460e+0, 1.162e-6
2.464e+0, 1.163e-6
2.468e+0, 1.164e-6
2.472e+0, 1.161e-6
2.476e+0, 1.160e-6
2.480e+0, 1.161e-6
2.484e+0, 1.161e-6
2.488e+0, 1.160e-6
2.492e+0, 1.159e-6
2.496e+0, 1.160e-6
2.500e+0, 1.157e-6
2.504e+0, 1.159e-6
2.508e+0, 1.160e-6
2.512e+0, 1.156e-6
2.516e+0, 1.158e-6
2.520e+0, 1.155e-6
2.524e+0, 1.156e-6
2.528e+0, 1.158e-6
2.532e+0, 1.154e-6
2.536e+0, 1.156e-6
2.540e+0, 1.155e-6
2.544e+0, 1.154e-6
2.548e+0, 1.154e-6
2.552e+0, 1.152e-6
2.556e+0, 1.152e-6
2.560e+0, 1.151e-6
2.564e+0, 1.150e-6
2.568e+0, 1.151e-6
2.572e+0, 1.149e-6
2.576e+0, 1.148e-6
2.580e+0, 1.148e-6
2.584e+0, 1.148e-6
2.588e+0, 1.148e-6
2.592e+0, 1.144e-6
2.596e+0, 1.147e-6
2.600e+0, 1.146e-6
2.604e+0, 1.146e-6
2.608e+0, 1.147e-6
2.612e+0, 1.141e-6
2.616e+0, 1.141e-6
2.620e+0, 1.143e-6
2.624e+0, 1.144e-6
2.628e+0, 1.139e-6
2.632e+0, 1.141e-6
2.636e+0, 1.144e-6
2.640e+0, 1.141e-6
2.644e+0, 1.140e-6
2.648e+0, 1.142e-6
2.652e+0, 1.135e-6
2.656e+0, 1.140e-6
2.660e+0, 1.138e-6
2.664e+0, 1.135e-6
2.668e+0, 1.140e-6
2.672e+0, 1.137e-6
2.676e+0, 1.137e-6
2.680e+0, 1.137e-6
2.684e+0, 1.135e-6
2.688e+0, 1.136e-6
2.692e+0, 1.139e-6
2.696e+0, 1.135e-6
2.700e+0, 1.134e-6
2.704e+0, 1.132e-6
2.708e+0, 1.133e-6
2.712e+0, 1.132e-6
2.716e+0, 1.135e-6
2.720e+0, 1.131e-6
2.724e+0, 1.130e-6
2.728e+0, 1.130e-6
2.732e+0, 1.127e-6
2.736e+0, 1.132e-6
2.740e+0, 1.128e-6
2.744e+0, 1.127e-6
2.748e+0, 1.128e-6
2.752e+0, 1.127e-6
2.756e+0, 1.123e-6
2.760e+0, 1.125e-6
2.764e+0, 1.126e-6
2.768e+0, 1.123e-6
2.772e+0, 1.123e-6
2.776e+0, 1.124e-6
2.780e+0, 1.125e-6
2.784e+0, 1.123e-6
2.788e+0, 1.123e-6
2.792e+0, 1.123e-6
2.796e+0, 1.123e-6
2.800e+0, 1.123e-6
2.804e+0, 1.120e-6
2.808e+0, 1.121e-6
2.812e+0, 1.121e-6
2.816e+0, 1.120e-6
2.820e+0, 1.125e-6
2.824e+0, 1.118e-6
2.828e+0, 1.118e-6
2.832e+0, 1.119e-6
2.836e+0, 1.118e-6
2.840e+0, 1.117e-6
2.844e+0, 1.116e-6
2.848e+0, 1.116e-6
2.852e+0, 1.115e-6
2.856e+0, 1.116e-6
2.860e+0, 1.115e-6
2.864e+0, 1.112e-6
2.868e+0, 1.114e-6
2.872e+0, 1.111e-6
2.876e+0, 1.113e-6
2.880e+0, 1.113e-6
2.884e+0, 1.110e-6
2.888e+0, 1.112e-6
2.892e+0, 1.110e-6
2.896e+0, 1.106e-6
2.900e+0, 1.112e-6
2.904e+0, 1.108e-6
2.908e+0, 1.105e-6
2.912e+0, 1.109e-6
2.916e+0, 1.108e-6
2.920e+0, 1.109e-6
2.924e+0, 1.107e-6
2.928e+0, 1.107e-6
2.932e+0, 1.105e-6
2.936e+0, 1.106e-6
2.940e+0, 1.106e-6
2.944e+0, 1.104e-6
2.948e+0, 1.104e-6
2.952e+0, 1.104e-6
2.956e+0, 1.102e-6
2.960e+0, 1.109e-6
2.964e+0, 1.103e-6
2.968e+0, 1.102e-6
2.972e+0, 1.106e-6
2.976e+0, 1.100e-6
2.980e+0, 1.101e-6
2.984e+0, 1.100e-6
2.988e+0, 1.100e-6
2.992e+0, 1.100e-6
2.996e+0, 1.100e-6
3.000e+0, 1.098e-6
3.004e+0, 1.098e-6
3.008e+0, 1.099e-6
3.012e+0, 1.096e-6
3.016e+0, 1.096e-6
3.020e+0, 1.097e-6
3.024e+0, 1.095e-6
3.028e+0, 1.098e-6
3.032e+0, 1.095e-6
3.036e+0, 1.090e-6
3.040e+0, 1.094e-6
3.044e+0, 1.096e-6
3.048e+0, 1.092e-6
3.052e+0, 1.093e-6
3.056e+0, 1.092e-6
3.060e+0, 1.092e-6
3.064e+0, 1.092e-6
3.068e+0, 1.091e-6
3.072e+0, 1.091e-6
3.076e+0, 1.092e-6
3.080e+0, 1.088e-6
3.084e+0, 1.090e-6
3.088e+0, 1.092e-6
3.092e+0, 1.089e-6
3.096e+0, 1.087e-6
3.100e+0, 1.092e-6
3.104e+0, 1.088e-6
3.108e+0, 1.087e-6
3.112e+0, 1.091e-6
3.116e+0, 1.085e-6
3.120e+0, 1.087e-6
3.124e+0, 1.084e-6
3.128e+0, 1.085e-6
3.132e+0, 1.087e-6
3.136e+0, 1.082e-6
3.140e+0, 1.085e-6
3.144e+0, 1.082e-6
3.148e+0, 1.083e-6
3.152e+0, 1.082e-6
3.156e+0, 1.081e-6
3.160e+0, 1.082e-6
3.164e+0, 1.080e-6
3.168e+0, 1.081e-6
3.172e+0, 1.081e-6
3.176e+0, 1.079e-6
3.180e+0, 1.080e-6
3.184e+0, 1.079e-6
3.188e+0, 1.078e-6
3.192e+0, 1.081e-6
3.196e+0, 1.075e-6
3.200e+0, 1.078e-6
3.204e+0, 1.078e-6
3.208e+0, 1.075e-6
3.212e+0, 1.078e-6
3.216e+0, 1.078e-6
3.220e+0, 1.076e-6
3.224e+0, 1.076e-6
3.228e+0, 1.076e-6
3.232e+0, 1.076e-6
3.236e+0, 1.075e-6
3.240e+0, 1.074e-6
3.244e+0, 1.071e-6
3.248e+0, 1.072e-6
3.252e+0, 1.074e-6
3.256e+0, 1.072e-6
3.260e+0, 1.072e-6
3.264e+0, 1.071e-6
3.268e+0, 1.070e-6
3.272e+0, 1.072e-6
3.276e+0, 1.071e-6
3.280e+0, 1.069e-6
3.284e+0, 1.069e-6
3.288e+0, 1.068e-6
3.292e+0, 1.064e-6
3.296e+0, 1.070e-6
3.300e+0, 1.067e-6
3.304e+0, 1.063e-6
3.308e+0, 1.067e-6
3.312e+0, 1.069e-6
3.316e+0, 1.065e-6
3.320e+0, 1.067e-6
3.324e+0, 1.067e-6
3.328e+0, 1.065e-6
3.332e+0, 1.066e-6
3.336e+0, 1.063e-6
3.340e+0, 1.065e-6
3.344e+0, 1.064e-6
3.348e+0, 1.062e-6
3.352e+0, 1.061e-6
3.356e+0, 1.067e-6
3.360e+0, 1.063e-6
3.364e+0, 1.062e-6
3.368e+0, 1.063e-6
3.372e+0, 1.058e-6
3.376e+0, 1.060e-6
3.380e+0, 1.058e-6
3.384e+0, 1.059e-6
3.388e+0, 1.057e-6
3.392e+0, 1.057e-6
3.396e+0, 1.057e-6
3.400e+0, 1.058e-6
3.404e+0, 1.059e-6
3.408e+0, 1.055e-6
3.412e+0, 1.056e-6
3.416e+0, 1.055e-6
3.420e+0, 1.052e-6
3.424e+0, 1.059e-6
3.428e+0, 1.052e-6
3.432e+0, 1.053e-6
3.436e+0, 1.056e-6
3.440e+0, 1.054e-6
3.444e+0, 1.052e-6
3.448e+0, 1.051e-6
3.452e+0, 1.053e-6
3.456e+0, 1.053e-6
3.460e+0, 1.052e-6
3.464e+0, 1.053e-6
3.468e+0, 1.049e-6
3.472e+0, 1.054e-6
3.476e+0, 1.050e-6
3.480e+0, 1.050e-6
3.484e+0, 1.055e-6
3.488e+0, 1.049e-6
3.492e+0, 1.049e-6
3.496e+0, 1.047e-6
3.500e+0, 1.047e-6
3.504e+0, 1.050e-6
3.508e+0, 1.048e-6
3.512e+0, 1.047e-6
3.516e+0, 1.046e-6
3.520e+0, 1.047e-6
3.524e+0, 1.047e-6
3.528e+0, 1.042e-6
3.532e+0, 1.046e-6
3.536e+0, 1.044e-6
3.540e+0, 1.045e-6
3.544e+0, 1.046e-6
3.548e+0, 1.038e-6
3.552e+0, 1.044e-6
3.556e+0, 1.044e-6
3.560e+0, 1.039e-6
3.564e+0, 1.043e-6
3.568e+0, 1.041e-6
3.572e+0, 1.042e-6
3.576e+0, 1.041e-6
3.580e+0, 1.041e-6
3.584e+0, 1.041e-6
3.588e+0, 1.040e-6
3.592e+0, 1.040e-6
3.596e+0, 1.040e-6
3.600e+0, 1.039e-6
3.604e+0, 1.040e-6
3.608e+0, 1.039e-6
3.612e+0, 1.042e-6
3.616e+0, 1.036e-6
3.620e+0, 1.035e-6
3.624e+0, 1.041e-6
3.628e+0, 1.036e-6
3.632e+0, 1.035e-6
3.636e+0, 1.036e-6
3.640e+0, 1.033e-6
3.644e+0, 1.037e-6
3.648e+0, 1.035e-6
3.652e+0, 1.033e-6
3.656e+0, 1.034e-6
3.660e+0, 1.032e-6
3.664e+0, 1.033e-6
3.668e+0, 1.034e-6
3.672e+0, 1.032e-6
3.676e+0, 1.033e-6
3.680e+0, 1.031e-6
3.684e+0, 1.034e-6
3.688e+0, 1.029e-6
3.692e+0, 1.031e-6
3.696e+0, 1.031e-6
3.700e+0, 1.028e-6
3.704e+0, 1.031e-6
3.708e+0, 1.030e-6
3.712e+0, 1.031e-6
3.716e+0, 1.030e-6
3.720e+0, 1.027e-6
3.724e+0, 1.029e-6
3.728e+0, 1.030e-6
3.732e+0, 1.027e-6
3.736e+0, 1.028e-6
3.740e+0, 1.028e-6
3.744e+0, 1.027e-6
3.748e+0, 1.026e-6
3.752e+0, 1.027e-6
3.756e+0, 1.029e-6
3.760e+0, 1.024e-6
3.764e+0, 1.027e-6
3.768e+0, 1.023e-6
3.772e+0, 1.025e-6
3.776e+0, 1.024e-6
3.780e+0, 1.021e-6
3.784e+0, 1.023e-6
3.788e+0, 1.022e-6
3.792e+0, 1.023e-6
3.796e+0, 1.024e-6
3.800e+0, 1.019e-6
3.804e+0, 1.020e-6
3.808e+0, 1.020e-6
3.812e+0, 1.022e-6
3.816e+0, 1.020e-6
3.820e+0, 1.019e-6
3.824e+0, 1.022e-6
3.828e+0, 1.018e-6
3.832e+0, 1.018e-6
3.836e+0, 1.020e-6
3.840e+0, 1.013e-6
3.844e+0, 1.019e-6
3.848e+0, 1.018e-6
3.852e+0, 1.018e-6
3.856e+0, 1.019e-6
3.860e+0, 1.015e-6
3.864e+0, 1.018e-6
3.868e+0, 1.018e-6
3.872e+0, 1.015e-6
3.876e+0, 1.018e-6
3.880e+0, 1.015e-6
3.884e+0, 1.016e-6
3.888e+0, 1.015e-6
3.892e+0, 1.015e-6
3.896e+0, 1.014e-6
3.900e+0, 1.012e-6
3.904e+0, 1.019e-6
3.908e+0, 1.014e-6
3.912e+0, 1.012e-6
3.916e+0, 1.015e-6
3.920e+0, 1.008e-6
3.924e+0, 1.011e-6
3.928e+0, 1.011e-6
3.932e+0, 1.010e-6
3.936e+0, 1.012e-6
3.940e+0, 1.010e-6
3.944e+0, 1.007e-6
3.948e+0, 1.008e-6
3.952e+0, 1.009e-6
3.956e+0, 1.009e-6
3.960e+0, 1.008e-6
3.964e+0, 1.009e-6
3.968e+0, 1.008e-6
3.972e+0, 1.008e-6
3.976e+0, 1.007e-6
3.980e+0, 1.008e-6
3.984e+0, 1.010e-6
3.988e+0, 1.008e-6
3.992e+0, 1.006e-6
3.996e+0, 1.008e-6
4.000e+0, 1.007e-6
4.004e+0, 1.006e-6
4.008e+0, 1.008e-6
4.012e+0, 1.002e-6
4.016e+0, 1.004e-6
4.020e+0, 1.006e-6
4.024e+0, 1.005e-6
4.028e+0, 1.004e-6
4.032e+0, 1.001e-6
4.036e+0, 1.002e-6
4.040e+0, 1.002e-6
4.044e+0, 1.004e-6
4.048e+0, 1.002e-6
4.052e+0, 1.000e-6
4.056e+0, 1.003e-6
4.060e+0, 1.000e-6
4.064e+0, 9.998e-7
4.068e+0, 1.002e-6
4.072e+0, 9.969e-7
4.076e+0, 9.998e-7
4.080e+0, 9.991e-7
4.084e+0, 9.968e-7
4.088e+0, 1.000e-6
4.092e+0, 9.962e-7
4.096e+0, 9.961e-7
4.100e+0, 9.971e-7
4.104e+0, 9.981e-7
4.108e+0, 9.992e-7
4.112e+0, 9.941e-7
4.116e+0, 9.969e-7
4.120e+0, 9.937e-7
4.124e+0, 9.984e-7
4.128e+0, 9.973e-7
4.132e+0, 9.929e-7
4.136e+0, 9.978e-7
4.140e+0, 9.937e-7
4.144e+0, 9.938e-7
4.148e+0, 9.989e-7
4.152e+0, 9.916e-7
4.156e+0, 9.935e-7
4.160e+0, 9.965e-7
4.164e+0, 9.940e-7
4.168e+0, 9.933e-7
4.172e+0, 9.916e-7
4.176e+0, 9.920e-7
4.180e+0, 9.895e-7
4.184e+0, 9.947e-7
4.188e+0, 9.936e-7
4.192e+0, 9.871e-7
4.196e+0, 9.911e-7
4.200e+0, 9.886e-7
4.204e+0, 9.890e-7
4.208e+0, 9.902e-7
4.212e+0, 9.865e-7
4.216e+0, 9.904e-7
4.220e+0, 9.873e-7
4.224e+0, 9.858e-7
4.228e+0, 9.884e-7
4.232e+0, 9.883e-7
4.236e+0, 9.865e-7
4.240e+0, 9.877e-7
4.244e+0, 9.877e-7
4.248e+0, 9.871e-7
4.252e+0, 9.859e-7
4.256e+0, 9.883e-7
4.260e+0, 9.850e-7
4.264e+0, 9.854e-7
4.268e+0, 9.852e-7
4.272e+0, 9.857e-7
4.276e+0, 9.853e-7
4.280e+0, 9.847e-7
4.284e+0, 9.833e-7
4.288e+0, 9.859e-7
4.292e+0, 9.843e-7
4.296e+0, 9.849e-7
4.300e+0, 9.838e-7
4.304e+0, 9.826e-7
4.308e+0, 9.828e-7
4.312e+0, 9.812e-7
4.316e+0, 9.822e-7
4.320e+0, 9.798e-7
4.324e+0, 9.786e-7
4.328e+0, 9.815e-7
4.332e+0, 9.803e-7
4.336e+0, 9.809e-7
4.340e+0, 9.790e-7
4.344e+0, 9.785e-7
4.348e+0, 9.799e-7
4.352e+0, 9.772e-7
4.356e+0, 9.793e-7
4.360e+0, 9.804e-7
4.364e+0, 9.731e-7
4.368e+0, 9.779e-7
4.372e+0, 9.758e-7
4.376e+0, 9.748e-7
4.380e+0, 9.772e-7
4.384e+0, 9.756e-7
4.388e+0, 9.779e-7
4.392e+0, 9.759e-7
4.396e+0, 9.759e-7
4.400e+0, 9.746e-7
4.404e+0, 9.751e-7
4.408e+0, 9.758e-7
4.412e+0, 9.747e-7
4.416e+0, 9.753e-7
4.420e+0, 9.755e-7
4.424e+0, 9.715e-7
4.428e+0, 9.786e-7
4.432e+0, 9.739e-7
4.436e+0, 9.731e-7
4.440e+0, 9.757e-7
4.444e+0, 9.717e-7
4.448e+0, 9.727e-7
4.452e+0, 9.712e-7
4.456e+0, 9.721e-7
4.460e+0, 9.712e-7
4.464e+0, 9.729e-7
4.468e+0, 9.720e-7
4.472e+0, 9.712e-7
4.476e+0, 9.706e-7
4.480e+0, 9.712e-7
4.484e+0, 9.698e-7
4.488e+0, 9.699e-7
4.492e+0, 9.674e-7
4.496e+0, 9.680e-7
4.500e+0, 9.693e-7
4.504e+0, 9.674e-7
4.508e+0, 9.698e-7
4.512e+0, 9.659e-7
4.516e+0, 9.649e-7
4.520e+0, 9.686e-7
4.524e+0, 9.684e-7
4.528e+0, 9.679e-7
4.532e+0, 9.665e-7
4.536e+0, 9.666e-7
4.540e+0, 9.669e-7
4.544e+0, 9.672e-7
4.548e+0, 9.659e-7
4.552e+0, 9.659e-7
4.556e+0, 9.653e-7
4.560e+0, 9.672e-7
4.564e+0, 9.652e-7
4.568e+0, 9.677e-7
4.572e+0, 9.631e-7
4.576e+0, 9.626e-7
4.580e+0, 9.659e-7
4.584e+0, 9.640e-7
4.588e+0, 9.618e-7
4.592e+0, 9.630e-7
4.596e+0, 9.619e-7
4.600e+0, 9.617e-7
4.604e+0, 9.598e-7
4.608e+0, 9.608e-7
4.612e+0, 9.615e-7
4.616e+0, 9.588e-7
4.620e+0, 9.611e-7
4.624e+0, 9.595e-7
4.628e+0, 9.610e-7
4.632e+0, 9.596e-7
4.636e+0, 9.588e-7
4.640e+0, 9.590e-7
4.644e+0, 9.577e-7
4.648e+0, 9.574e-7
4.652e+0, 9.581e-7
4.656e+0, 9.535e-7
4.660e+0, 9.561e-7
4.664e+0, 9.573e-7
4.668e+0, 9.570e-7
4.672e+0, 9.568e-7
4.676e+0, 9.553e-7
4.680e+0, 9.516e-7
4.684e+0, 9.554e-7
4.688e+0, 9.558e-7
4.692e+0, 9.566e-7
4.696e+0, 9.555e-7
4.700e+0, 9.550e-7
4.704e+0, 9.567e-7
4.708e+0, 9.572e-7
4.712e+0, 9.548e-7
4.716e+0, 9.543e-7
4.720e+0, 9.557e-7
4.724e+0, 9.539e-7
4.728e+0, 9.526e-7
4.732e+0, 9.578e-7
4.736e+0, 9.508e-7
4.740e+0, 9.523e-7
4.744e+0, 9.558e-7
4.748e+0, 9.512e-7
4.752e+0, 9.534e-7
4.756e+0, 9.493e-7
4.760e+0, 9.489e-7
4.764e+0, 9.521e-7
4.768e+0, 9.501e-7
4.772e+0, 9.502e-7
4.776e+0, 9.490e-7
4.780e+0, 9.521e-7
4.784e+0, 9.481e-7
4.788e+0, 9.496e-7
4.792e+0, 9.504e-7
4.796e+0, 9.466e-7
4.800e+0, 9.490e-7
4.804e+0, 9.491e-7
4.808e+0, 9.454e-7
4.812e+0, 9.486e-7
4.816e+0, 9.465e-7
4.820e+0, 9.453e-7
4.824e+0, 9.474e-7
4.828e+0, 9.466e-7
4.832e+0, 9.484e-7
4.836e+0, 9.444e-7
4.840e+0, 9.481e-7
4.844e+0, 9.472e-7
4.848e+0, 9.466e-7
4.852e+0, 9.475e-7
4.856e+0, 9.451e-7
4.860e+0, 9.465e-7
4.864e+0, 9.452e-7
4.868e+0, 9.440e-7
4.872e+0, 9.490e-7
4.876e+0, 9.458e-7
4.880e+0, 9.433e-7
4.884e+0, 9.476e-7
4.888e+0, 9.443e-7
4.892e+0, 9.444e-7
4.896e+0, 9.439e-7
4.900e+0, 9.419e-7
4.904e+0, 9.419e-7
4.908e+0, 9.429e-7
4.912e+0, 9.433e-7
4.916e+0, 9.424e-7
4.920e+0, 9.406e-7
4.924e+0, 9.395e-7
4.928e+0, 9.409e-7
4.932e+0, 9.415e-7
4.936e+0, 9.406e-7
4.940e+0, 9.403e-7
4.944e+0, 9.414e-7
4.948e+0, 9.345e-7
4.952e+0, 9.398e-7
4.956e+0, 9.393e-7
4.960e+0, 9.378e-7
4.964e+0, 9.404e-7
4.968e+0, 9.353e-7
4.972e+0, 9.386e-7
4.976e+0, 9.374e-7
4.980e+0, 9.389e-7
4.984e+0, 9.390e-7
4.988e+0, 9.342e-7
4.992e+0, 9.364e-7
4.996e+0, 9.364e-7
5.000e+0, 9.379e-7
-9.900e-2, 8.743e-7
-9.800e-2, 8.399e-7
-9.700e-2, 8.228e-7
-9.600e-2, 7.994e-7
-9.500e-2, 7.906e-7
-9.400e-2, 7.765e-7
-9.300e-2, 7.623e-7
-9.200e-2, 7.543e-7
-9.100e-2, 7.435e-7
-9.000e-2, 7.337e-7
-8.900e-2, 7.250e-7
-8.800e-2, 7.165e-7
-8.700e-2, 7.078e-7
-8.600e-2, 7.022e-7
-8.500e-2, 6.910e-7
-8.400e-2, 6.874e-7
-8.300e-2, 6.812e-7
-8.200e-2, 6.695e-7
-8.100e-2, 6.671e-7
-8.000e-2, 6.580e-7
-7.900e-2, 6.534e-7
-7.800e-2, 6.481e-7
-7.700e-2, 6.380e-7
-7.600e-2, 6.391e-7
-7.500e-2, 6.297e-7
-7.400e-2, 6.240e-7
-7.300e-2, 6.219e-7
-7.200e-2, 6.135e-7
-7.100e-2, 6.100e-7
-7.000e-2, 6.035e-7
-6.900e-2, 5.979e-7
-6.800e-2, 5.940e-7
-6.700e-2, 5.899e-7
-6.600e-2, 5.827e-7
-6.500e-2, 5.787e-7
-6.400e-2, 5.747e-7
-6.300e-2, 5.740e-7
-6.200e-2, 5.667e-7
-6.100e-2, 5.624e-7
-6.000e-2, 5.604e-7
-5.900e-2, 5.559e-7
-5.800e-2, 5.491e-7
-5.700e-2, 5.451e-7
-5.600e-2, 5.420e-7
-5.500e-2, 5.402e-7
-5.400e-2, 5.327e-7
-5.300e-2, 5.277e-7
-5.200e-2, 5.246e-7
-5.100e-2, 5.254e-7
-5.000e-2, 5.181e-7
-4.900e-2, 5.127e-7
-4.800e-2, 5.112e-7
-4.700e-2, 5.094e-7
-4.600e-2, 5.048e-7
-4.500e-2, 5.000e-7
-4.400e-2, 4.978e-7
-4.300e-2, 4.944e-7
-4.200e-2, 4.893e-7
-4.100e-2, 4.894e-7
-4.000e-2, 4.817e-7
-3.900e-2, 4.778e-7
-3.800e-2, 4.773e-7
-3.700e-2, 4.703e-7
-3.600e-2, 4.697e-7
-3.500e-2, 4.669e-7
-3.400e-2, 4.619e-7
-3.300e-2, 4.586e-7
-3.200e-2, 4.575e-7
-3.100e-2, 4.552e-7
-3.000e-2, 4.506e-7
-2.900e-2, 4.477e-7
-2.800e-2, 4.460e-7
-2.700e-2, 4.437e-7
-2.600e-2, 4.359e-7
-2.500e-2, 4.382e-7
-2.400e-2, 4.319e-7
-2.300e-2, 4.295e-7
-2.200e-2, 4.286e-7
-2.100e-2, 4.219e-7
-2.000e-2, 4.229e-7
-1.900e-2, 4.179e-7
-1.800e-2, 4.118e-7
-1.700e-2, 4.134e-7
-1.600e-2, 4.091e-7
-1.500e-2, 4.080e-7
-1.400e-2, 4.037e-7
-1.300e-2, 4.009e-7
-1.200e-2, 3.972e-7
-1.100e-2, 3.942e-7
-1.000e-2, 3.923e-7
-9.000e-3, 3.907e-7
-8.000e-3, 3.853e-7
-7.000e-3, 3.840e-7
-6.000e-3, 3.824e-7
-5.000e-3, 3.766e-7
-4.000e-3, 3.760e-7
-3.000e-3, 3.743e-7
-2.000e-3, 3.679e-7
-1.000e-3, 3.681e-7
2.584e-8, 3.628e-7
1.000e-3, 3.613e-7
2.000e-3, 3.598e-7
3.000e-3, 3.525e-7
4.000e-3, 3.535e-7
5.000e-3, 3.513e-7
6.000e-3, 3.454e-7
7.000e-3, 3.434e-7
8.000e-3, 3.420e-7
9.000e-3, 3.403e-7
1.000e-2, 3.376e-7
1.100e-2, 3.329e-7
1.200e-2, 3.318e-7
1.300e-2, 3.317e-7
1.400e-2, 3.258e-7
1.500e-2, 3.234e-7
1.600e-2, 3.204e-7
1.700e-2, 3.195e-7
1.800e-2, 3.157e-7
1.900e-2, 3.126e-7
2.000e-2, 3.090e-7
2.100e-2, 3.058e-7
2.200e-2, 3.031e-7
2.300e-2, 3.020e-7
2.400e-2, 2.959e-7
2.500e-2, 2.972e-7
2.600e-2, 2.952e-7
2.700e-2, 2.878e-7
2.800e-2, 2.872e-7
2.900e-2, 2.862e-7
3.000e-2, 2.805e-7
3.100e-2, 2.776e-7
3.200e-2, 2.759e-7
3.300e-2, 2.740e-7
3.400e-2, 2.703e-7
3.500e-2, 2.656e-7
3.600e-2, 2.670e-7
3.700e-2, 2.635e-7
3.800e-2, 2.571e-7
3.900e-2, 2.575e-7
4.000e-2, 2.505e-7
4.100e-2, 2.499e-7
4.200e-2, 2.480e-7
4.300e-2, 2.419e-7
4.400e-2, 2.416e-7
4.500e-2, 2.358e-7
4.600e-2, 2.324e-7
4.700e-2, 2.283e-7
4.800e-2, 2.251e-7
4.900e-2, 2.251e-7
5.000e-2, 2.197e-7
5.100e-2, 2.170e-7
5.200e-2, 2.145e-7
5.300e-2, 2.117e-7
5.400e-2, 2.042e-7
5.500e-2, 2.037e-7
5.600e-2, 1.983e-7
5.700e-2, 1.965e-7
5.800e-2, 1.934e-7
5.900e-2, 1.845e-7
6.000e-2, 1.832e-7
6.100e-2, 1.790e-7
6.200e-2, 1.726e-7
6.300e-2, 1.716e-7
6.400e-2, 1.652e-7
6.500e-2, 1.661e-7
6.600e-2, 1.574e-7
6.700e-2, 1.528e-7
6.800e-2, 1.516e-7
6.900e-2, 1.464e-7
7.000e-2, 1.407e-7
7.100e-2, 1.387e-7
7.200e-2, 1.325e-7
7.300e-2, 1.254e-7
7.400e-2, 1.258e-7
7.500e-2, 1.178e-7
7.600e-2, 1.124e-7
7.700e-2, 1.104e-7
7.800e-2, 1.028e-7
7.900e-2, 9.488e-8
8.000e-2, 9.011e-8
8.100e-2, 8.687e-8
8.200e-2, 8.073e-8
8.300e-2, 7.305e-8
8.400e-2, 6.713e-8
8.500e-2, 5.952e-8
8.600e-2, 5.575e-8
8.700e-2, 4.762e-8
8.800e-2, 4.090e-8
8.900e-2, 3.661e-8
9.000e-2, 3.141e-8
9.100e-2, 2.256e-8
9.200e-2, 1.798e-8
9.300e-2, 1.074e-8
9.400e-2, -1.032e-9
9.500e-2, -5.427e-9
9.600e-2, -1.410e-8
9.700e-2, -1.945e-8
9.800e-2, -2.920e-8
9.900e-2, -3.670e-8
1.000e-1, -4.241e-8
1.010e-1, -5.356e-8
1.020e-1, -6.141e-8
1.030e-1, -6.725e-8
1.040e-1, -7.982e-8
1.050e-1, -8.620e-8
1.060e-1, -9.564e-8
1.070e-1, -1.074e-7
1.080e-1, -1.161e-7
1.090e-1, -1.259e-7
1.100e-1, -1.362e-7
1.110e-1, -1.460e-7
1.120e-1, -1.605e-7
1.130e-1, -1.669e-7
1.140e-1, -1.777e-7
1.150e-1, -1.945e-7
1.160e-1, -2.026e-7
1.170e-1, -2.131e-7
1.180e-1, -2.258e-7
1.190e-1, -2.352e-7
1.200e-1, -2.520e-7
1.210e-1, -2.613e-7
1.220e-1, -2.785e-7
1.230e-1, -2.917e-7
1.240e-1, -3.035e-7
1.250e-1, -3.181e-7
1.260e-1, -3.323e-7
1.270e-1, -3.493e-7
1.280e-1, -3.633e-7
1.290e-1, -3.748e-7
1.300e-1, -3.948e-7
1.310e-1, -4.126e-7
1.320e-1, -4.248e-7
1.330e-1, -4.453e-7
1.340e-1, -4.651e-7
1.350e-1, -4.765e-7
1.360e-1, -4.997e-7
1.370e-1, -5.156e-7
1.380e-1, -5.335e-7
1.390e-1, -5.573e-7
1.400e-1, -5.759e-7
1.410e-1, -5.940e-7
1.420e-1, -6.180e-7
1.430e-1, -6.374e-7
1.440e-1, -6.625e-7
1.450e-1, -6.815e-7
1.460e-1, -7.060e-7
1.470e-1, -7.337e-7
1.480e-1, -7.546e-7
1.490e-1, -7.808e-7
1.500e-1, -8.070e-7
1.510e-1, -8.318e-7
1.520e-1, -8.634e-7
1.530e-1, -8.857e-7
1.540e-1, -9.123e-7
1.550e-1, -9.455e-7
1.560e-1, -9.733e-7
1.570e-1, -1.002e-6
1.580e-1, -1.037e-6
1.590e-1, -1.066e-6
1.600e-1, -1.102e-6
1.610e-1, -1.132e-6
1.620e-1, -1.167e-6
1.630e-1, -1.203e-6
1.640e-1, -1.233e-6
1.650e-1, -1.274e-6
1.660e-1, -1.310e-6
1.670e-1, -1.342e-6
1.680e-1, -1.387e-6
1.690e-1, -1.423e-6
1.700e-1, -1.463e-6
1.710e-1, -1.508e-6
1.720e-1, -1.545e-6
1.730e-1, -1.589e-6
1.740e-1, -1.634e-6
1.750e-1, -1.677e-6
1.760e-1, -1.726e-6
1.770e-1, -1.763e-6
1.780e-1, -1.811e-6
1.790e-1, -1.860e-6
1.800e-1, -1.902e-6
1.810e-1, -1.952e-6
1.820e-1, -2.003e-6
1.830e-1, -2.049e-6
1.840e-1, -2.105e-6
1.850e-1, -2.152e-6
1.860e-1, -2.202e-6
1.870e-1, -2.260e-6
1.880e-1, -2.307e-6
1.890e-1, -2.359e-6
1.900e-1, -2.415e-6
1.910e-1, -2.463e-6
1.920e-1, -2.522e-6
1.930e-1, -2.565e-6
1.940e-1, -2.625e-6
1.950e-1, -2.683e-6
1.960e-1, -2.727e-6
1.970e-1, -2.785e-6
1.980e-1, -2.842e-6
1.990e-1, -2.891e-6
2.000e-1, -2.950e-6
2.010e-1, -2.996e-6
2.020e-1, -3.051e-6
2.030e-1, -3.108e-6
2.040e-1, -3.153e-6
2.050e-1, -3.208e-6
2.060e-1, -3.264e-6
2.070e-1, -3.309e-6
2.080e-1, -3.364e-6
2.090e-1, -3.406e-6
2.100e-1, -3.456e-6
2.110e-1, -3.508e-6
2.120e-1, -3.547e-6
2.130e-1, -3.595e-6
2.140e-1, -3.638e-6
2.150e-1, -3.676e-6
2.160e-1, -3.727e-6
2.170e-1, -3.759e-6
2.180e-1, -3.797e-6
2.190e-1, -3.840e-6
2.200e-1, -3.871e-6
2.210e-1, -3.907e-6
2.220e-1, -3.944e-6
2.230e-1, -3.972e-6
2.240e-1, -4.009e-6
2.250e-1, -4.031e-6
2.260e-1, -4.061e-6
2.270e-1, -4.092e-6
2.280e-1, -4.108e-6
2.290e-1, -4.132e-6
2.300e-1, -4.157e-6
2.310e-1, -4.169e-6
2.320e-1, -4.193e-6
2.330e-1, -4.207e-6
2.340e-1, -4.221e-6
2.350e-1, -4.239e-6
2.360e-1, -4.245e-6
2.370e-1, -4.258e-6
2.380e-1, -4.268e-6
2.390e-1, -4.274e-6
2.400e-1, -4.285e-6
2.410e-1, -4.280e-6
2.420e-1, -4.287e-6
2.430e-1, -4.294e-6
2.440e-1, -4.286e-6
2.450e-1, -4.292e-6
2.460e-1, -4.292e-6
2.470e-1, -4.284e-6
2.480e-1, -4.287e-6
2.490e-1, -4.276e-6
2.500e-1, -4.270e-6
2.510e-1, -4.267e-6
2.520e-1, -4.255e-6
2.530e-1, -4.247e-6
2.540e-1, -4.237e-6
2.550e-1, -4.228e-6
2.560e-1, -4.217e-6
2.570e-1, -4.197e-6
2.580e-1, -4.190e-6
2.590e-1, -4.179e-6
2.600e-1, -4.158e-6
2.610e-1, -4.147e-6
2.620e-1, -4.133e-6
2.630e-1, -4.112e-6
2.640e-1, -4.102e-6
2.650e-1, -4.080e-6
2.660e-1, -4.065e-6
2.670e-1, -4.050e-6
2.680e-1, -4.028e-6
2.690e-1, -4.009e-6
2.700e-1, -3.995e-6
2.710e-1, -3.972e-6
2.720e-1, -3.954e-6
2.730e-1, -3.933e-6
2.740e-1, -3.913e-6
2.750e-1, -3.899e-6
2.760e-1, -3.873e-6
2.770e-1, -3.855e-6
2.780e-1, -3.839e-6
2.790e-1, -3.812e-6
2.800e-1, -3.799e-6
2.810e-1, -3.774e-6
2.820e-1, -3.753e-6
2.830e-1, -3.736e-6
2.840e-1, -3.715e-6
2.850e-1, -3.693e-6
2.860e-1, -3.675e-6
2.870e-1, -3.655e-6
2.880e-1, -3.637e-6
2.890e-1, -3.617e-6
2.900e-1, -3.597e-6
2.910e-1, -3.580e-6
2.920e-1, -3.560e-6
2.930e-1, -3.538e-6
2.940e-1, -3.521e-6
2.950e-1, -3.500e-6
2.960e-1, -3.485e-6
2.970e-1, -3.462e-6
2.980e-1, -3.447e-6
2.990e-1, -3.432e-6
3.000e-1, -3.409e-6
3.010e-1, -3.390e-6
3.020e-1, -3.376e-6
3.030e-1, -3.353e-6
3.040e-1, -3.341e-6
3.050e-1, -3.319e-6
3.060e-1, -3.303e-6
3.070e-1, -3.287e-6
3.080e-1, -3.267e-6
3.090e-1, -3.253e-6
3.100e-1, -3.241e-6
3.110e-1, -3.222e-6
3.120e-1, -3.207e-6
3.130e-1, -3.190e-6
3.140e-1, -3.174e-6
3.150e-1, -3.160e-6
3.160e-1, -3.147e-6
3.170e-1, -3.128e-6
3.180e-1, -3.117e-6
3.190e-1, -3.102e-6
3.200e-1, -3.087e-6
3.210e-1, -3.068e-6
3.220e-1, -3.058e-6
3.230e-1, -3.047e-6
3.240e-1, -3.029e-6
3.250e-1, -3.016e-6
3.260e-1, -3.006e-6
3.270e-1, -2.989e-6
3.280e-1, -2.978e-6
3.290e-1, -2.964e-6
3.300e-1, -2.952e-6
3.310e-1, -2.941e-6
3.320e-1, -2.927e-6
3.330e-1, -2.913e-6
3.340e-1, -2.903e-6
3.350e-1, -2.892e-6
3.360e-1, -2.880e-6
3.370e-1, -2.868e-6
3.380e-1, -2.859e-6
3.390e-1, -2.846e-6
3.400e-1, -2.833e-6
3.410e-1, -2.826e-6
3.420e-1, -2.816e-6
3.430e-1, -2.803e-6
3.440e-1, -2.795e-6
3.450e-1, -2.782e-6
3.460e-1, -2.771e-6
3.470e-1, -2.763e-6
3.480e-1, -2.751e-6
3.490e-1, -2.743e-6
3.500e-1, -2.734e-6
3.510e-1, -2.722e-6
3.520e-1, -2.717e-6
3.530e-1, -2.706e-6
3.540e-1, -2.695e-6
3.550e-1, -2.688e-6
3.560e-1, -2.676e-6
3.570e-1, -2.670e-6
3.580e-1, -2.661e-6
3.590e-1, -2.651e-6
3.600e-1, -2.646e-6
3.610e-1, -2.636e-6
3.620e-1, -2.626e-6
3.630e-1, -2.623e-6
3.640e-1, -2.612e-6
3.650e-1, -2.603e-6
3.660e-1, -2.598e-6
3.670e-1, -2.589e-6
3.680e-1, -2.583e-6
3.690e-1, -2.572e-6
3.700e-1, -2.565e-6
3.710e-1, -2.562e-6
3.720e-1, -2.548e-6
3.730e-1, -2.546e-6
3.740e-1, -2.539e-6
3.750e-1, -2.530e-6
3.760e-1, -2.522e-6
3.770e-1, -2.516e-6
3.780e-1, -2.508e-6
3.790e-1, -2.502e-6
3.800e-1, -2.498e-6
3.810e-1, -2.488e-6
3.820e-1, -2.485e-6
3.830e-1, -2.477e-6
3.840e-1, -2.472e-6
3.850e-1, -2.460e-6
3.860e-1, -2.459e-6
3.870e-1, -2.451e-6
3.880e-1, -2.446e-6
3.890e-1, -2.439e-6
3.900e-1, -2.435e-6
3.910e-1, -2.429e-6
3.920e-1, -2.426e-6
3.930e-1, -2.414e-6
3.940e-1, -2.411e-6
3.950e-1, -2.408e-6
3.960e-1, -2.399e-6
3.970e-1, -2.393e-6
3.980e-1, -2.391e-6
3.990e-1, -2.383e-6
4.000e-1, -2.380e-6
4.010e-1, -2.373e-6
4.020e-1, -2.369e-6
4.030e-1, -2.363e-6
4.040e-1, -2.357e-6
4.050e-1, -2.351e-6
4.060e-1, -2.349e-6
4.070e-1, -2.341e-6
4.080e-1, -2.338e-6
4.090e-1, -2.330e-6
4.100e-1, -2.328e-6
4.110e-1, -2.324e-6
4.120e-1, -2.318e-6
4.130e-1, -2.312e-6
4.140e-1, -2.310e-6
4.150e-1, -2.305e-6
4.160e-1, -2.302e-6
4.170e-1, -2.295e-6
4.180e-1, -2.294e-6
4.190e-1, -2.289e-6
4.200e-1, -2.280e-6
4.210e-1, -2.280e-6
4.220e-1, -2.274e-6
4.230e-1, -2.268e-6
4.240e-1, -2.267e-6
4.250e-1, -2.263e-6
4.260e-1, -2.259e-6
4.270e-1, -2.257e-6
4.280e-1, -2.248e-6
4.290e-1, -2.243e-6
4.300e-1, -2.245e-6
4.310e-1, -2.236e-6
4.320e-1, -2.235e-6
4.330e-1, -2.229e-6
4.340e-1, -2.225e-6
4.350e-1, -2.225e-6
4.360e-1, -2.219e-6
4.370e-1, -2.215e-6
4.380e-1, -2.215e-6
4.390e-1, -2.208e-6
4.400e-1, -2.207e-6
4.410e-1, -2.201e-6
4.420e-1, -2.199e-6
4.430e-1, -2.195e-6
4.440e-1, -2.193e-6
4.450e-1, -2.189e-6
4.460e-1, -2.186e-6
4.470e-1, -2.183e-6
4.480e-1, -2.178e-6
4.490e-1, -2.175e-6
4.500e-1, -2.173e-6
4.510e-1, -2.173e-6
4.520e-1, -2.168e-6
4.530e-1, -2.166e-6
4.540e-1, -2.163e-6
4.550e-1, -2.158e-6
4.560e-1, -2.158e-6
4.570e-1, -2.151e-6
4.580e-1, -2.151e-6
4.590e-1, -2.148e-6
4.600e-1, -2.144e-6
4.610e-1, -2.141e-6
4.620e-1, -2.139e-6
4.630e-1, -2.139e-6
4.640e-1, -2.135e-6
4.650e-1, -2.131e-6
4.660e-1, -2.129e-6
4.670e-1, -2.127e-6
4.680e-1, -2.125e-6
4.690e-1, -2.119e-6
4.700e-1, -2.123e-6
4.710e-1, -2.118e-6
4.720e-1, -2.117e-6
4.730e-1, -2.112e-6
4.740e-1, -2.111e-6
4.750e-1, -2.110e-6
4.760e-1, -2.108e-6
4.770e-1, -2.105e-6
4.780e-1, -2.104e-6
4.790e-1, -2.100e-6
4.800e-1, -2.100e-6
4.810e-1, -2.097e-6
4.820e-1, -2.094e-6
4.830e-1, -2.095e-6
4.840e-1, -2.091e-6
4.850e-1, -2.089e-6
4.860e-1, -2.091e-6
4.870e-1, -2.087e-6
4.880e-1, -2.088e-6
4.890e-1, -2.082e-6
4.900e-1, -2.081e-6
4.910e-1, -2.081e-6
4.920e-1, -2.077e-6
4.930e-1, -2.076e-6
4.940e-1, -2.076e-6
4.950e-1, -2.073e-6
4.960e-1, -2.073e-6
4.970e-1, -2.067e-6
4.980e-1, -2.068e-6
4.990e-1, -2.070e-6
5.000e-1, -2.070e-6
4.000e-3, -1.981e-6
8.000e-3, -1.965e-6
1.200e-2, -1.949e-6
1.600e-2, -1.938e-6
2.000e-2, -1.927e-6
2.400e-2, -1.920e-6
2.800e-2, -1.911e-6
3.200e-2, -1.898e-6
3.600e-2, -1.892e-6
4.000e-2, -1.884e-6
4.400e-2, -1.874e-6
4.800e-2, -1.871e-6
5.200e-2, -1.863e-6
5.600e-2, -1.856e-6
6.000e-2, -1.851e-6
6.400e-2, -1.844e-6
6.800e-2, -1.840e-6
7.200e-2, -1.833e-6
7.600e-2, -1.828e-6
8.000e-2, -1.821e-6
8.400e-2, -1.817e-6
8.800e-2, -1.811e-6
9.200e-2, -1.806e-6
9.600e-2, -1.803e-6
1.000e-1, -1.796e-6
1.040e-1, -1.793e-6
1.080e-1, -1.788e-6
1.120e-1, -1.782e-6
1.160e-1, -1.777e-6
1.200e-1, -1.774e-6
1.240e-1, -1.770e-6
1.280e-1, -1.763e-6
1.320e-1, -1.764e-6
1.360e-1, -1.755e-6
1.400e-1, -1.751e-6
1.440e-1, -1.748e-6
1.480e-1, -1.742e-6
1.520e-1, -1.739e-6
1.560e-1, -1.736e-6
1.600e-1, -1.730e-6
1.640e-1, -1.725e-6
1.680e-1, -1.724e-6
1.720e-1, -1.718e-6
1.760e-1, -1.716e-6
1.800e-1, -1.712e-6
1.840e-1, -1.701e-6
1.880e-1, -1.706e-6
1.920e-1, -1.699e-6
1.960e-1, -1.693e-6
2.000e-1, -1.692e-6
2.040e-1, -1.690e-6
2.080e-1, -1.686e-6
2.120e-1, -1.682e-6
2.160e-1, -1.683e-6
2.200e-1, -1.674e-6
2.240e-1, -1.672e-6
2.280e-1, -1.669e-6
2.320e-1, -1.665e-6
2.360e-1, -1.667e-6
2.400e-1, -1.659e-6
2.440e-1, -1.657e-6
2.480e-1, -1.655e-6
2.520e-1, -1.650e-6
2.560e-1, -1.648e-6
2.600e-1, -1.648e-6
2.640e-1, -1.640e-6
2.680e-1, -1.639e-6
2.720e-1, -1.637e-6
2.760e-1, -1.634e-6
2.800e-1, -1.628e-6
2.840e-1, -1.626e-6
2.880e-1, -1.624e-6
2.920e-1, -1.618e-6
2.960e-1, -1.617e-6
3.000e-1, -1.612e-6
3.040e-1, -1.613e-6
3.080e-1, -1.609e-6
3.120e-1, -1.603e-6
3.160e-1, -1.604e-6
3.200e-1, -1.597e-6
3.240e-1, -1.593e-6
3.280e-1, -1.596e-6
3.320e-1, -1.590e-6
3.360e-1, -1.589e-6
3.400e-1, -1.586e-6
3.440e-1, -1.584e-6
3.480e-1, -1.582e-6
3.520e-1, -1.576e-6
3.560e-1, -1.576e-6
3.600e-1, -1.573e-6
3.640e-1, -1.570e-6
3.680e-1, -1.568e-6
3.720e-1, -1.565e-6
3.760e-1, -1.565e-6
3.800e-1, -1.561e-6
3.840e-1, -1.558e-6
3.880e-1, -1.557e-6
3.920e-1, -1.552e-6
3.960e-1, -1.551e-6
4.000e-1, -1.552e-6
4.040e-1, -1.546e-6
4.080e-1, -1.545e-6
4.120e-1, -1.545e-6
4.160e-1, -1.538e-6
4.200e-1, -1.539e-6
4.240e-1, -1.533e-6
4.280e-1, -1.531e-6
4.320e-1, -1.530e-6
4.360e-1, -1.535e-6
4.400e-1, -1.524e-6
4.440e-1, -1.520e-6
4.480e-1, -1.521e-6
4.520e-1, -1.516e-6
4.560e-1, -1.516e-6
4.600e-1, -1.512e-6
4.640e-1, -1.507e-6
4.680e-1, -1.511e-6
4.720e-1, -1.506e-6
4.760e-1, -1.503e-6
4.800e-1, -1.504e-6
4.840e-1, -1.496e-6
4.880e-1, -1.498e-6
4.920e-1, -1.495e-6
4.960e-1, -1.496e-6
5.000e-1, -1.486e-6
5.040e-1, -1.490e-6
5.080e-1, -1.489e-6
5.120e-1, -1.485e-6
5.160e-1, -1.483e-6
5.200e-1, -1.483e-6
5.240e-1, -1.477e-6
5.280e-1, -1.480e-6
5.320e-1, -1.473e-6
5.360e-1, -1.474e-6
5.400e-1, -1.474e-6
5.440e-1, -1.469e-6
5.480e-1, -1.467e-6
5.520e-1, -1.466e-6
5.560e-1, -1.462e-6
5.600e-1, -1.462e-6
5.640e-1, -1.457e-6
5.680e-1, -1.454e-6
5.720e-1, -1.454e-6
5.760e-1, -1.453e-6
5.800e-1, -1.451e-6
5.840e-1, -1.446e-6
5.880e-1, -1.446e-6
5.920e-1, -1.443e-6
5.960e-1, -1.442e-6
6.000e-1, -1.443e-6
6.040e-1, -1.435e-6
6.080e-1, -1.437e-6
6.120e-1, -1.435e-6
6.160e-1, -1.432e-6
6.200e-1, -1.433e-6
6.240e-1, -1.429e-6
6.280e-1, -1.428e-6
6.320e-1, -1.426e-6
6.360e-1, -1.424e-6
6.400e-1, -1.423e-6
6.440e-1, -1.420e-6
6.480e-1, -1.419e-6
6.520e-1, -1.418e-6
6.560e-1, -1.415e-6
6.600e-1, -1.412e-6
6.640e-1, -1.412e-6
6.680e-1, -1.412e-6
6.720e-1, -1.407e-6
6.760e-1, -1.405e-6
6.800e-1, -1.408e-6
6.840e-1, -1.403e-6
6.880e-1, -1.401e-6
6.920e-1, -1.403e-6
6.960e-1, -1.395e-6
7.000e-1, -1.397e-6
7.040e-1, -1.398e-6
7.080e-1, -1.391e-6
7.120e-1, -1.390e-6
7.160e-1, -1.392e-6
7.200e-1, -1.388e-6
7.240e-1, -1.385e-6
7.280e-1, -1.384e-6
7.320e-1, -1.382e-6
7.360e-1, -1.379e-6
7.400e-1, -1.383e-6
7.440e-1, -1.373e-6
7.480e-1, -1.377e-6
7.520e-1, -1.373e-6
7.560e-1, -1.368e-6
7.600e-1, -1.375e-6
7.640e-1, -1.368e-6
7.680e-1, -1.369e-6
7.720e-1, -1.368e-6
7.760e-1, -1.362e-6
7.800e-1, -1.361e-6
7.840e-1, -1.361e-6
7.880e-1, -1.360e-6
7.920e-1, -1.358e-6
7.960e-1, -1.356e-6
8.000e-1, -1.355e-6
8.040e-1, -1.352e-6
8.080e-1, -1.350e-6
8.120e-1, -1.350e-6
8.160e-1, -1.349e-6
8.200e-1, -1.351e-6
8.240e-1, -1.345e-6
8.280e-1, -1.341e-6
8.320e-1, -1.344e-6
8.360e-1, -1.341e-6
8.400e-1, -1.338e-6
8.440e-1, -1.335e-6
8.480e-1, -1.334e-6
8.520e-1, -1.337e-6
8.560e-1, -1.332e-6
8.600e-1, -1.330e-6
8.640e-1, -1.328e-6
8.680e-1, -1.327e-6
8.720e-1, -1.327e-6
8.760e-1, -1.327e-6
8.800e-1, -1.323e-6
8.840e-1, -1.319e-6
8.880e-1, -1.323e-6
8.920e-1, -1.322e-6
8.960e-1, -1.317e-6
9.000e-1, -1.317e-6
9.040e-1, -1.315e-6
9.080e-1, -1.314e-6
9.120e-1, -1.314e-6
9.160e-1, -1.311e-6
9.200e-1, -1.311e-6
9.240e-1, -1.307e-6
9.280e-1, -1.305e-6
9.320e-1, -1.308e-6
9.360e-1, -1.304e-6
9.400e-1, -1.305e-6
9.440e-1, -1.300e-6
9.480e-1, -1.301e-6
9.520e-1, -1.301e-6
9.560e-1, -1.295e-6
9.600e-1, -1.301e-6
9.640e-1, -1.294e-6
9.680e-1, -1.291e-6
9.720e-1, -1.297e-6
9.760e-1, -1.291e-6
9.800e-1, -1.288e-6
9.840e-1, -1.288e-6
9.880e-1, -1.284e-6
9.920e-1, -1.284e-6
9.960e-1, -1.284e-6
1.000e+0, -1.280e-6
1.004e+0, -1.281e-6
1.008e+0, -1.281e-6
1.012e+0, -1.278e-6
1.016e+0, -1.275e-6
1.020e+0, -1.274e-6
1.024e+0, -1.272e-6
1.028e+0, -1.274e-6
1.032e+0, -1.273e-6
1.036e+0, -1.266e-6
1.040e+0, -1.267e-6
1.044e+0, -1.268e-6
1.048e+0, -1.266e-6
1.052e+0, -1.268e-6
1.056e+0, -1.264e-6
1.060e+0, -1.264e-6
1.064e+0, -1.263e-6
1.068e+0, -1.262e-6
1.072e+0, -1.259e-6
1.076e+0, -1.259e-6
1.080e+0, -1.256e-6
1.084e+0, -1.254e-6
1.088e+0, -1.257e-6
1.092e+0, -1.254e-6
1.096e+0, -1.251e-6
1.100e+0, -1.252e-6
1.104e+0, -1.251e-6
1.108e+0, -1.247e-6
1.112e+0, -1.250e-6
1.116e+0, -1.245e-6
1.120e+0, -1.243e-6
1.124e+0, -1.243e-6
1.128e+0, -1.240e-6
1.132e+0, -1.241e-6
1.136e+0, -1.239e-6
1.140e+0, -1.234e-6
1.144e+0, -1.237e-6
1.148e+0, -1.235e-6
1.152e+0, -1.233e-6
1.156e+0, -1.231e-6
1.160e+0, -1.234e-6
1.164e+0, -1.231e-6
1.168e+0, -1.228e-6
1.172e+0, -1.230e-6
1.176e+0, -1.223e-6
1.180e+0, -1.224e-6
1.184e+0, -1.226e-6
1.188e+0, -1.221e-6
1.192e+0, -1.224e-6
1.196e+0, -1.220e-6
1.200e+0, -1.219e-6
1.204e+0, -1.220e-6
1.208e+0, -1.218e-6
1.212e+0, -1.217e-6
1.216e+0, -1.219e-6
1.220e+0, -1.213e-6
1.224e+0, -1.210e-6
1.228e+0, -1.214e-6
1.232e+0, -1.212e-6
1.236e+0, -1.212e-6
1.240e+0, -1.206e-6
1.244e+0, -1.208e-6
1.248e+0, -1.208e-6
1.252e+0, -1.205e-6
1.256e+0, -1.202e-6
1.260e+0, -1.205e-6
1.264e+0, -1.203e-6
1.268e+0, -1.198e-6
1.272e+0, -1.197e-6
1.276e+0, -1.198e-6
1.280e+0, -1.194e-6
1.284e+0, -1.195e-6
1.288e+0, -1.196e-6
1.292e+0, -1.192e-6
1.296e+0, -1.194e-6
1.300e+0, -1.191e-6
1.304e+0, -1.191e-6
1.308e+0, -1.189e-6
1.312e+0, -1.188e-6
1.316e+0, -1.190e-6
1.320e+0, -1.189e-6
1.324e+0, -1.188e-6
1.328e+0, -1.184e-6
1.332e+0, -1.185e-6
1.336e+0, -1.182e-6
1.340e+0, -1.182e-6
1.344e+0, -1.181e-6
1.348e+0, -1.180e-6
1.352e+0, -1.179e-6
1.356e+0, -1.182e-6
1.360e+0, -1.176e-6
1.364e+0, -1.176e-6
1.368e+0, -1.175e-6
1.372e+0, -1.170e-6
1.376e+0, -1.173e-6
1.380e+0, -1.171e-6
1.384e+0, -1.169e-6
1.388e+0, -1.169e-6
1.392e+0, -1.167e-6
1.396e+0, -1.167e-6
1.400e+0, -1.166e-6
1.404e+0, -1.166e-6
1.408e+0, -1.164e-6
1.412e+0, -1.161e-6
1.416e+0, -1.165e-6
1.420e+0, -1.157e-6
1.424e+0, -1.159e-6
1.428e+0, -1.159e-6
1.432e+0, -1.156e-6
1.436e+0, -1.158e-6
1.440e+0, -1.157e-6
1.444e+0, -1.154e-6
1.448e+0, -1.154e-6
1.452e+0, -1.152e-6
1.456e+0, -1.152e-6
1.460e+0, -1.151e-6
1.464e+0, -1.148e-6
1.468e+0, -1.150e-6
1.472e+0, -1.148e-6
1.476e+0, -1.144e-6
1.480e+0, -1.147e-6
1.484e+0, -1.146e-6
1.488e+0, -1.145e-6
1.492e+0, -1.143e-6
1.496e+0, -1.139e-6
1.500e+0, -1.140e-6
1.504e+0, -1.140e-6
1.508e+0, -1.143e-6
1.512e+0, -1.136e-6
1.516e+0, -1.137e-6
1.520e+0, -1.136e-6
1.524e+0, -1.134e-6
1.528e+0, -1.135e-6
1.532e+0, -1.132e-6
1.536e+0, -1.127e-6
1.540e+0, -1.130e-6
1.544e+0, -1.130e-6
1.548e+0, -1.126e-6
1.552e+0, -1.129e-6
1.556e+0, -1.127e-6
1.560e+0, -1.126e-6
1.564e+0, -1.123e-6
1.568e+0, -1.125e-6
1.572e+0, -1.120e-6
1.576e+0, -1.123e-6
1.580e+0, -1.122e-6
1.584e+0, -1.120e-6
1.588e+0, -1.124e-6
1.592e+0, -1.119e-6
1.596e+0, -1.120e-6
1.600e+0, -1.118e-6
1.604e+0, -1.116e-6
1.608e+0, -1.119e-6
1.612e+0, -1.117e-6
1.616e+0, -1.114e-6
1.620e+0, -1.114e-6
1.624e+0, -1.112e-6
1.628e+0, -1.111e-6
1.632e+0, -1.111e-6
1.636e+0, -1.108e-6
1.640e+0, -1.110e-6
1.644e+0, -1.105e-6
1.648e+0, -1.109e-6
1.652e+0, -1.105e-6
1.656e+0, -1.105e-6
1.660e+0, -1.106e-6
1.664e+0, -1.098e-6
1.668e+0, -1.103e-6
1.672e+0, -1.100e-6
1.676e+0, -1.098e-6
1.680e+0, -1.102e-6
1.684e+0, -1.096e-6
1.688e+0, -1.095e-6
1.692e+0, -1.096e-6
1.696e+0, -1.094e-6
1.700e+0, -1.098e-6
1.704e+0, -1.094e-6
1.708e+0, -1.093e-6
1.712e+0, -1.092e-6
1.716e+0, -1.092e-6
1.720e+0, -1.093e-6
1.724e+0, -1.089e-6
1.728e+0, -1.089e-6
1.732e+0, -1.088e-6
1.736e+0, -1.086e-6
1.740e+0, -1.088e-6
1.744e+0, -1.086e-6
1.748e+0, -1.086e-6
1.752e+0, -1.087e-6
1.756e+0, -1.083e-6
1.760e+0, -1.085e-6
1.764e+0, -1.087e-6
1.768e+0, -1.080e-6
1.772e+0, -1.079e-6
1.776e+0, -1.078e-6
1.780e+0, -1.078e-6
1.784e+0, -1.077e-6
1.788e+0, -1.077e-6
1.792e+0, -1.074e-6
1.796e+0, -1.073e-6
1.800e+0, -1.075e-6
1.804e+0, -1.070e-6
1.808e+0, -1.071e-6
1.812e+0, -1.071e-6
1.816e+0, -1.064e-6
1.820e+0, -1.073e-6
1.824e+0, -1.069e-6
1.828e+0, -1.064e-6
1.832e+0, -1.066e-6
1.836e+0, -1.064e-6
1.840e+0, -1.068e-6
1.844e+0, -1.063e-6
1.848e+0, -1.064e-6
1.852e+0, -1.064e-6
1.856e+0, -1.063e-6
1.860e+0, -1.063e-6
1.864e+0, -1.062e-6
1.868e+0, -1.062e-6
1.872e+0, -1.059e-6
1.876e+0, -1.056e-6
1.880e+0, -1.062e-6
1.884e+0, -1.054e-6
1.888e+0, -1.056e-6
1.892e+0, -1.060e-6
1.896e+0, -1.054e-6
1.900e+0, -1.052e-6
1.904e+0, -1.053e-6
1.908e+0, -1.051e-6
1.912e+0, -1.052e-6
1.916e+0, -1.050e-6
1.920e+0, -1.048e-6
1.924e+0, -1.049e-6
1.928e+0, -1.049e-6
1.932e+0, -1.047e-6
1.936e+0, -1.046e-6
1.940e+0, -1.048e-6
1.944e+0, -1.043e-6
1.948e+0, -1.043e-6
1.952e+0, -1.044e-6
1.956e+0, -1.039e-6
1.960e+0, -1.042e-6
1.964e+0, -1.041e-6
1.968e+0, -1.037e-6
1.972e+0, -1.040e-6
1.976e+0, -1.037e-6
1.980e+0, -1.041e-6
1.984e+0, -1.038e-6
1.988e+0, -1.036e-6
1.992e+0, -1.036e-6
1.996e+0, -1.035e-6
2.000e+0, -1.034e-6
2.004e+0, -1.033e-6
2.008e+0, -1.032e-6
2.012e+0, -1.035e-6
2.016e+0, -1.030e-6
2.020e+0, -1.032e-6
2.024e+0, -1.028e-6
2.028e+0, -1.029e-6
2.032e+0, -1.038e-6
2.036e+0, -1.026e-6
2.040e+0, -1.028e-6
2.044e+0, -1.032e-6
2.048e+0, -1.024e-6
2.052e+0, -1.026e-6
2.056e+0, -1.023e-6
2.060e+0, -1.022e-6
2.064e+0, -1.021e-6
2.068e+0, -1.019e-6
2.072e+0, -1.019e-6
2.076e+0, -1.021e-6
2.080e+0, -1.021e-6
2.084e+0, -1.016e-6
2.088e+0, -1.017e-6
2.092e+0, -1.018e-6
2.096e+0, -1.014e-6
2.100e+0, -1.018e-6
2.104e+0, -1.017e-6
2.108e+0, -1.011e-6
2.112e+0, -1.015e-6
2.116e+0, -1.011e-6
2.120e+0, -1.013e-6
2.124e+0, -1.013e-6
2.128e+0, -1.010e-6
2.132e+0, -1.010e-6
2.136e+0, -1.009e-6
2.140e+0, -1.010e-6
2.144e+0, -1.008e-6
2.148e+0, -1.010e-6
2.152e+0, -1.007e-6
2.156e+0, -1.005e-6
2.160e+0, -1.006e-6
2.164e+0, -1.007e-6
2.168e+0, -1.004e-6
2.172e+0, -1.006e-6
2.176e+0, -1.002e-6
2.180e+0, -1.000e-6
2.184e+0, -1.006e-6
2.188e+0, -9.994e-7
2.192e+0, -9.995e-7
2.196e+0, -9.977e-7
2.200e+0, -9.965e-7
2.204e+0, -9.992e-7
2.208e+0, -9.970e-7
2.212e+0, -9.964e-7
2.216e+0, -9.976e-7
2.220e+0, -9.913e-7
2.224e+0, -9.933e-7
2.228e+0, -9.945e-7
2.232e+0, -9.945e-7
2.236e+0, -9.884e-7
2.240e+0, -9.905e-7
2.244e+0, -9.908e-7
2.248e+0, -9.874e-7
2.252e+0, -9.896e-7
2.256e+0, -9.882e-7
2.260e+0, -9.874e-7
2.264e+0, -9.881e-7
2.268e+0, -9.882e-7
2.272e+0, -9.872e-7
2.276e+0, -9.862e-7
2.280e+0, -9.826e-7
2.284e+0, -9.853e-7
2.288e+0, -9.852e-7
2.292e+0, -9.850e-7
2.296e+0, -9.819e-7
2.300e+0, -9.800e-7
2.304e+0, -9.801e-7
2.308e+0, -9.795e-7
2.312e+0, -9.839e-7
2.316e+0, -9.796e-7
2.320e+0, -9.771e-7
2.324e+0, -9.819e-7
2.328e+0, -9.757e-7
2.332e+0, -9.781e-7
2.336e+0, -9.760e-7
2.340e+0, -9.737e-7
2.344e+0, -9.731e-7
2.348e+0, -9.757e-7
2.352e+0, -9.724e-7
2.356e+0, -9.721e-7
2.360e+0, -9.725e-7
2.364e+0, -9.709e-7
2.368e+0, -9.709e-7
2.372e+0, -9.704e-7
2.376e+0, -9.683e-7
2.380e+0, -9.701e-7
2.384e+0, -9.670e-7
2.388e+0, -9.631e-7
2.392e+0, -9.646e-7
2.396e+0, -9.668e-7
2.400e+0, -9.673e-7
2.404e+0, -9.645e-7
2.408e+0, -9.648e-7
2.412e+0, -9.612e-7
2.416e+0, -9.646e-7
2.420e+0, -9.616e-7
2.424e+0, -9.607e-7
2.428e+0, -9.622e-7
2.432e+0, -9.596e-7
2.436e+0, -9.626e-7
2.440e+0, -9.591e-7
2.444e+0, -9.579e-7
2.448e+0, -9.587e-7
2.452e+0, -9.606e-7
2.456e+0, -9.579e-7
2.460e+0, -9.564e-7
2.464e+0, -9.563e-7
2.468e+0, -9.557e-7
2.472e+0, -9.523e-7
2.476e+0, -9.545e-7
2.480e+0, -9.544e-7
2.484e+0, -9.514e-7
2.488e+0, -9.534e-7
2.492e+0, -9.484e-7
2.496e+0, -9.527e-7
2.500e+0, -9.490e-7
2.504e+0, -9.483e-7
2.508e+0, -9.489e-7
2.512e+0, -9.485e-7
2.516e+0, -9.436e-7
2.520e+0, -9.463e-7
2.524e+0, -9.442e-7
2.528e+0, -9.455e-7
2.532e+0, -9.451e-7
2.536e+0, -9.438e-7
2.540e+0, -9.457e-7
2.544e+0, -9.444e-7
2.548e+0, -9.463e-7
2.552e+0, -9.433e-7
2.556e+0, -9.398e-7
2.560e+0, -9.401e-7
2.564e+0, -9.383e-7
2.568e+0, -9.427e-7
2.572e+0, -9.397e-7
2.576e+0, -9.386e-7
2.580e+0, -9.383e-7
2.584e+0, -9.369e-7
2.588e+0, -9.389e-7
2.592e+0, -9.416e-7
2.596e+0, -9.346e-7
2.600e+0, -9.342e-7
2.604e+0, -9.381e-7
2.608e+0, -9.353e-7
2.612e+0, -9.332e-7
2.616e+0, -9.317e-7
2.620e+0, -9.322e-7
2.624e+0, -9.291e-7
2.628e+0, -9.328e-7
2.632e+0, -9.285e-7
2.636e+0, -9.305e-7
2.640e+0, -9.299e-7
2.644e+0, -9.237e-7
2.648e+0, -9.291e-7
2.652e+0, -9.272e-7
2.656e+0, -9.236e-7
2.660e+0, -9.281e-7
2.664e+0, -9.244e-7
2.668e+0, -9.207e-7
2.672e+0, -9.231e-7
2.676e+0, -9.236e-7
2.680e+0, -9.243e-7
2.684e+0, -9.216e-7
2.688e+0, -9.242e-7
2.692e+0, -9.181e-7
2.696e+0, -9.208e-7
2.700e+0, -9.210e-7
2.704e+0, -9.196e-7
2.708e+0, -9.201e-7
2.712e+0, -9.184e-7
2.716e+0, -9.176e-7
2.720e+0, -9.208e-7
2.724e+0, -9.158e-7
2.728e+0, -9.161e-7
2.732e+0, -9.192e-7
2.736e+0, -9.143e-7
2.740e+0, -9.159e-7
2.744e+0, -9.139e-7
2.748e+0, -9.146e-7
2.752e+0, -9.140e-7
2.756e+0, -9.116e-7
2.760e+0, -9.134e-7
2.764e+0, -9.082e-7
2.768e+0, -9.121e-7
2.772e+0, -9.094e-7
2.776e+0, -9.078e-7
2.780e+0, -9.111e-7
2.784e+0, -9.059e-7
2.788e+0, -9.092e-7
2.792e+0, -9.101e-7
2.796e+0, -9.019e-7
2.800e+0, -9.084e-7
2.804e+0, -9.054e-7
2.808e+0, -9.035e-7
2.812e+0, -9.032e-7
2.816e+0, -9.021e-7
2.820e+0, -9.041e-7
2.824e+0, -9.030e-7
2.828e+0, -9.028e-7
2.832e+0, -9.029e-7
2.836e+0, -8.996e-7
2.840e+0, -9.002e-7
2.844e+0, -8.997e-7
2.848e+0, -9.015e-7
2.852e+0, -8.995e-7
2.856e+0, -8.976e-7
2.860e+0, -8.996e-7
2.864e+0, -8.980e-7
2.868e+0, -8.972e-7
2.872e+0, -9.019e-7
2.876e+0, -8.950e-7
2.880e+0, -8.973e-7
2.884e+0, -8.997e-7
2.888e+0, -8.943e-7
2.892e+0, -8.963e-7
2.896e+0, -8.917e-7
2.900e+0, -8.928e-7
2.904e+0, -8.918e-7
2.908e+0, -8.935e-7
2.912e+0, -8.913e-7
2.916e+0, -8.921e-7
2.920e+0, -8.912e-7
2.924e+0, -8.917e-7
2.928e+0, -8.897e-7
2.932e+0, -8.908e-7
2.936e+0, -8.840e-7
2.940e+0, -8.893e-7
2.944e+0, -8.864e-7
2.948e+0, -8.829e-7
2.952e+0, -8.877e-7
2.956e+0, -8.871e-7
2.960e+0, -8.872e-7
2.964e+0, -8.861e-7
2.968e+0, -8.834e-7
2.972e+0, -8.835e-7
2.976e+0, -8.812e-7
2.980e+0, -8.844e-7
2.984e+0, -8.826e-7
2.988e+0, -8.816e-7
2.992e+0, -8.851e-7
2.996e+0, -8.803e-7
3.000e+0, -8.831e-7
3.004e+0, -8.789e-7
3.008e+0, -8.794e-7
3.012e+0, -8.856e-7
3.016e+0, -8.780e-7
3.020e+0, -8.779e-7
3.024e+0, -8.814e-7
3.028e+0, -8.730e-7
3.032e+0, -8.795e-7
3.036e+0, -8.746e-7
3.040e+0, -8.761e-7
3.044e+0, -8.751e-7
3.048e+0, -8.739e-7
3.052e+0, -8.732e-7
3.056e+0, -8.728e-7
3.060e+0, -8.750e-7
3.064e+0, -8.727e-7
3.068e+0, -8.694e-7
3.072e+0, -8.717e-7
3.076e+0, -8.672e-7
3.080e+0, -8.694e-7
3.084e+0, -8.706e-7
3.088e+0, -8.667e-7
3.092e+0, -8.685e-7
3.096e+0, -8.689e-7
3.100e+0, -8.666e-7
3.104e+0, -8.678e-7
3.108e+0, -8.662e-7
3.112e+0, -8.682e-7
3.116e+0, -8.654e-7
3.120e+0, -8.653e-7
3.124e+0, -8.662e-7
3.128e+0, -8.671e-7
3.132e+0, -8.656e-7
3.136e+0, -8.622e-7
3.140e+0, -8.637e-7
3.144e+0, -8.643e-7
3.148e+0, -8.618e-7
3.152e+0, -8.687e-7
3.156e+0, -8.612e-7
3.160e+0, -8.589e-7
3.164e+0, -8.657e-7
3.168e+0, -8.595e-7
3.172e+0, -8.594e-7
3.176e+0, -8.595e-7
3.180e+0, -8.560e-7
3.184e+0, -8.596e-7
3.188e+0, -8.559e-7
3.192e+0, -8.571e-7
3.196e+0, -8.563e-7
3.200e+0, -8.557e-7
3.204e+0, -8.569e-7
3.208e+0, -8.538e-7
3.212e+0, -8.550e-7
3.216e+0, -8.493e-7
3.220e+0, -8.515e-7
3.224e+0, -8.548e-7
3.228e+0, -8.470e-7
3.232e+0, -8.538e-7
3.236e+0, -8.530e-7
3.240e+0, -8.513e-7
3.244e+0, -8.501e-7
3.248e+0, -8.499e-7
3.252e+0, -8.483e-7
3.256e+0, -8.497e-7
3.260e+0, -8.476e-7
3.264e+0, -8.494e-7
3.268e+0, -8.493e-7
3.272e+0, -8.500e-7
3.276e+0, -8.476e-7
3.280e+0, -8.482e-7
3.284e+0, -8.471e-7
3.288e+0, -8.473e-7
3.292e+0, -8.513e-7
3.296e+0, -8.467e-7
3.300e+0, -8.452e-7
3.304e+0, -8.465e-7
3.308e+0, -8.436e-7
3.312e+0, -8.440e-7
3.316e+0, -8.451e-7
3.320e+0, -8.424e-7
3.324e+0, -8.391e-7
3.328e+0, -8.379e-7
3.332e+0, -8.386e-7
3.336e+0, -8.427e-7
3.340e+0, -8.379e-7
3.344e+0, -8.380e-7
3.348e+0, -8.391e-7
3.352e+0, -8.374e-7
3.356e+0, -8.350e-7
3.360e+0, -8.355e-7
3.364e+0, -8.379e-7
3.368e+0, -8.334e-7
3.372e+0, -8.365e-7
3.376e+0, -8.370e-7
3.380e+0, -8.337e-7
3.384e+0, -8.357e-7
3.388e+0, -8.357e-7
3.392e+0, -8.321e-7
3.396e+0, -8.372e-7
3.400e+0, -8.330e-7
3.404e+0, -8.317e-7
3.408e+0, -8.346e-7
3.412e+0, -8.311e-7
3.416e+0, -8.309e-7
3.420e+0, -8.315e-7
3.424e+0, -8.322e-7
3.428e+0, -8.309e-7
3.432e+0, -8.344e-7
3.436e+0, -8.294e-7
3.440e+0, -8.270e-7
3.444e+0, -8.314e-7
3.448e+0, -8.282e-7
3.452e+0, -8.291e-7
3.456e+0, -8.245e-7
3.460e+0, -8.267e-7
3.464e+0, -8.239e-7
3.468e+0, -8.269e-7
3.472e+0, -8.239e-7
3.476e+0, -8.253e-7
3.480e+0, -8.225e-7
3.484e+0, -8.234e-7
3.488e+0, -8.247e-7
3.492e+0, -8.230e-7
3.496e+0, -8.191e-7
3.500e+0, -8.229e-7
3.504e+0, -8.206e-7
3.508e+0, -8.187e-7
3.512e+0, -8.226e-7
3.516e+0, -8.206e-7
3.520e+0, -8.201e-7
3.524e+0, -8.190e-7
3.528e+0, -8.211e-7
3.532e+0, -8.169e-7
3.536e+0, -8.177e-7
3.540e+0, -8.198e-7
3.544e+0, -8.161e-7
3.548e+0, -8.200e-7
3.552e+0, -8.177e-7
3.556e+0, -8.155e-7
3.560e+0, -8.168e-7
3.564e+0, -8.144e-7
3.568e+0, -8.152e-7
3.572e+0, -8.175e-7
3.576e+0, -8.149e-7
3.580e+0, -8.134e-7
3.584e+0, -8.153e-7
3.588e+0, -8.107e-7
3.592e+0, -8.110e-7
3.596e+0, -8.115e-7
3.600e+0, -8.118e-7
3.604e+0, -8.092e-7
3.608e+0, -8.127e-7
3.612e+0, -8.102e-7
3.616e+0, -8.090e-7
3.620e+0, -8.111e-7
3.624e+0, -8.067e-7
3.628e+0, -8.081e-7
3.632e+0, -8.096e-7
3.636e+0, -8.016e-7
3.640e+0, -8.086e-7
3.644e+0, -8.051e-7
3.648e+0, -8.060e-7
3.652e+0, -8.058e-7
3.656e+0, -8.048e-7
3.660e+0, -8.062e-7
3.664e+0, -8.078e-7
3.668e+0, -8.078e-7
3.672e+0, -8.043e-7
3.676e+0, -8.048e-7
3.680e+0, -8.067e-7
3.684e+0, -8.043e-7
3.688e+0, -8.049e-7
3.692e+0, -8.015e-7
3.696e+0, -8.005e-7
3.700e+0, -8.030e-7
3.704e+0, -8.002e-7
3.708e+0, -8.029e-7
3.712e+0, -8.059e-7
3.716e+0, -7.988e-7
3.720e+0, -8.009e-7
3.724e+0, -8.022e-7
3.728e+0, -7.991e-7
3.732e+0, -7.977e-7
3.736e+0, -7.962e-7
3.740e+0, -7.997e-7
3.744e+0, -7.955e-7
3.748e+0, -7.964e-7
3.752e+0, -7.939e-7
3.756e+0, -7.936e-7
3.760e+0, -7.984e-7
3.764e+0, -7.924e-7
3.768e+0, -7.958e-7
3.772e+0, -7.926e-7
3.776e+0, -7.871e-7
3.780e+0, -7.958e-7
3.784e+0, -7.946e-7
3.788e+0, -7.898e-7
3.792e+0, -7.928e-7
3.796e+0, -7.884e-7
3.800e+0, -7.916e-7
3.804e+0, -7.918e-7
3.808e+0, -7.897e-7
3.812e+0, -7.943e-7
3.816e+0, -7.869e-7
3.820e+0, -7.884e-7
3.824e+0, -7.881e-7
3.828e+0, -7.903e-7
3.832e+0, -7.875e-7
3.836e+0, -7.860e-7
3.840e+0, -7.889e-7
3.844e+0, -7.860e-7
3.848e+0, -7.863e-7
3.852e+0, -7.925e-7
3.856e+0, -7.850e-7
3.860e+0, -7.854e-7
3.864e+0, -7.892e-7
3.868e+0, -7.827e-7
3.872e+0, -7.855e-7
3.876e+0, -7.819e-7
3.880e+0, -7.843e-7
3.884e+0, -7.827e-7
3.888e+0, -7.816e-7
3.892e+0, -7.846e-7
3.896e+0, -7.796e-7
3.900e+0, -7.829e-7
3.904e+0, -7.801e-7
3.908e+0, -7.798e-7
3.912e+0, -7.817e-7
3.916e+0, -7.749e-7
3.920e+0, -7.799e-7
3.924e+0, -7.791e-7
3.928e+0, -7.769e-7
3.932e+0, -7.785e-7
3.936e+0, -7.772e-7
3.940e+0, -7.779e-7
3.944e+0, -7.789e-7
3.948e+0, -7.758e-7
3.952e+0, -7.797e-7
3.956e+0, -7.769e-7
3.960e+0, -7.786e-7
3.964e+0, -7.753e-7
3.968e+0, -7.736e-7
3.972e+0, -7.775e-7
3.976e+0, -7.751e-7
3.980e+0, -7.755e-7
3.984e+0, -7.753e-7
3.988e+0, -7.716e-7
3.992e+0, -7.788e-7
3.996e+0, -7.719e-7
4.000e+0, -7.707e-7
4.004e+0, -7.770e-7
4.008e+0, -7.701e-7
4.012e+0, -7.736e-7
4.016e+0, -7.683e-7
4.020e+0, -7.678e-7
4.024e+0, -7.713e-7
4.028e+0, -7.712e-7
4.032e+0, -7.671e-7
4.036e+0, -7.668e-7
4.040e+0, -7.690e-7
4.044e+0, -7.672e-7
4.048e+0, -7.672e-7
4.052e+0, -7.657e-7
4.056e+0, -7.626e-7
4.060e+0, -7.664e-7
4.064e+0, -7.666e-7
4.068e+0, -7.634e-7
4.072e+0, -7.656e-7
4.076e+0, -7.640e-7
4.080e+0, -7.639e-7
4.084e+0, -7.664e-7
4.088e+0, -7.637e-7
4.092e+0, -7.591e-7
4.096e+0, -7.627e-7
4.100e+0, -7.624e-7
4.104e+0, -7.654e-7
4.108e+0, -7.625e-7
4.112e+0, -7.622e-7
4.116e+0, -7.614e-7
4.120e+0, -7.617e-7
4.124e+0, -7.631e-7
4.128e+0, -7.599e-7
4.132e+0, -7.642e-7
4.136e+0, -7.599e-7
4.140e+0, -7.579e-7
4.144e+0, -7.629e-7
4.148e+0, -7.598e-7
4.152e+0, -7.605e-7
4.156e+0, -7.569e-7
4.160e+0, -7.559e-7
4.164e+0, -7.594e-7
4.168e+0, -7.541e-7
4.172e+0, -7.554e-7
4.176e+0, -7.558e-7
4.180e+0, -7.549e-7
4.184e+0, -7.550e-7
4.188e+0, -7.565e-7
4.192e+0, -7.539e-7
4.196e+0, -7.507e-7
4.200e+0, -7.537e-7
4.204e+0, -7.522e-7
4.208e+0, -7.514e-7
4.212e+0, -7.532e-7
4.216e+0, -7.547e-7
4.220e+0, -7.554e-7
4.224e+0, -7.493e-7
4.228e+0, -7.509e-7
4.232e+0, -7.513e-7
4.236e+0, -7.519e-7
4.240e+0, -7.519e-7
4.244e+0, -7.493e-7
4.248e+0, -7.503e-7
4.252e+0, -7.492e-7
4.256e+0, -7.499e-7
4.260e+0, -7.497e-7
4.264e+0, -7.486e-7
4.268e+0, -7.479e-7
4.272e+0, -7.503e-7
4.276e+0, -7.481e-7
4.280e+0, -7.478e-7
4.284e+0, -7.510e-7
4.288e+0, -7.456e-7
4.292e+0, -7.448e-7
4.296e+0, -7.483e-7
4.300e+0, -7.466e-7
4.304e+0, -7.466e-7
4.308e+0, -7.485e-7
4.312e+0, -7.443e-7
4.316e+0, -7.459e-7
4.320e+0, -7.420e-7
4.324e+0, -7.423e-7
4.328e+0, -7.426e-7
4.332e+0, -7.422e-7
4.336e+0, -7.413e-7
4.340e+0, -7.399e-7
4.344e+0, -7.411e-7
4.348e+0, -7.389e-7
4.352e+0, -7.411e-7
4.356e+0, -7.422e-7
4.360e+0, -7.368e-7
4.364e+0, -7.398e-7
4.368e+0, -7.397e-7
4.372e+0, -7.328e-7
4.376e+0, -7.394e-7
4.380e+0, -7.375e-7
4.384e+0, -7.387e-7
4.388e+0, -7.374e-7
4.392e+0, -7.371e-7
4.396e+0, -7.364e-7
4.400e+0, -7.368e-7
4.404e+0, -7.387e-7
4.408e+0, -7.350e-7
4.412e+0, -7.361e-7
4.416e+0, -7.330e-7
4.420e+0, -7.357e-7
4.424e+0, -7.354e-7
4.428e+0, -7.343e-7
4.432e+0, -7.323e-7
4.436e+0, -7.360e-7
4.440e+0, -7.349e-7
4.444e+0, -7.320e-7
4.448e+0, -7.377e-7
4.452e+0, -7.307e-7
4.456e+0, -7.338e-7
4.460e+0, -7.308e-7
4.464e+0, -7.311e-7
4.468e+0, -7.321e-7
4.472e+0, -7.326e-7
4.476e+0, -7.289e-7
4.480e+0, -7.312e-7
4.484e+0, -7.302e-7
4.488e+0, -7.310e-7
4.492e+0, -7.305e-7
4.496e+0, -7.270e-7
4.500e+0, -7.232e-7
4.504e+0, -7.290e-7
4.508e+0, -7.314e-7
4.512e+0, -7.234e-7
4.516e+0, -7.258e-7
4.520e+0, -7.259e-7
4.524e+0, -7.278e-7
4.528e+0, -7.286e-7
4.532e+0, -7.266e-7
4.536e+0, -7.257e-7
4.540e+0, -7.266e-7
4.544e+0, -7.247e-7
4.548e+0, -7.254e-7
4.552e+0, -7.266e-7
4.556e+0, -7.236e-7
4.560e+0, -7.235e-7
4.564e+0, -7.254e-7
4.568e+0, -7.240e-7
4.572e+0, -7.226e-7
4.576e+0, -7.252e-7
4.580e+0, -7.238e-7
4.584e+0, -7.191e-7
4.588e+0, -7.277e-7
4.592e+0, -7.205e-7
4.596e+0, -7.203e-7
4.600e+0, -7.195e-7
4.604e+0, -7.185e-7
4.608e+0, -7.198e-7
4.612e+0, -7.212e-7
4.616e+0, -7.178e-7
4.620e+0, -7.191e-7
4.624e+0, -7.142e-7
4.628e+0, -7.180e-7
4.632e+0, -7.178e-7
4.636e+0, -7.170e-7
4.640e+0, -7.134e-7
4.644e+0, -7.132e-7
4.648e+0, -7.163e-7
4.652e+0, -7.137e-7
4.656e+0, -7.161e-7
4.660e+0, -7.153e-7
4.664e+0, -7.150e-7
4.668e+0, -7.139e-7
4.672e+0, -7.144e-7
4.676e+0, -7.132e-7
4.680e+0, -7.149e-7
4.684e+0, -7.129e-7
4.688e+0, -7.150e-7
4.692e+0, -7.142e-7
4.696e+0, -7.100e-7
4.700e+0, -7.134e-7
4.704e+0, -7.124e-7
4.708e+0, -7.145e-7
4.712e+0, -7.129e-7
4.716e+0, -7.134e-7
4.720e+0, -7.140e-7
4.724e+0, -7.120e-7
4.728e+0, -7.147e-7
4.732e+0, -7.085e-7
4.736e+0, -7.094e-7
4.740e+0, -7.097e-7
4.744e+0, -7.090e-7
4.748e+0, -7.091e-7
4.752e+0, -7.120e-7
4.756e+0, -7.059e-7
4.760e+0, -7.089e-7
4.764e+0, -7.070e-7
4.768e+0, -7.058e-7
4.772e+0, -7.078e-7
4.776e+0, -7.052e-7
4.780e+0, -7.057e-7
4.784e+0, -7.048e-7
4.788e+0, -7.048e-7
4.792e+0, -7.033e-7
4.796e+0, -7.026e-7
4.800e+0, -7.070e-7
4.804e+0, -7.026e-7
4.808e+0, -7.072e-7
4.812e+0, -7.043e-7
4.816e+0, -6.980e-7
4.820e+0, -7.065e-7
4.824e+0, -7.033e-7
4.828e+0, -7.021e-7
4.832e+0, -7.034e-7
4.836e+0, -7.011e-7
4.840e+0, -7.060e-7
4.844e+0, -7.045e-7
4.848e+0, -7.012e-7
4.852e+0, -7.032e-7
4.856e+0, -7.012e-7
4.860e+0, -7.018e-7
4.864e+0, -6.985e-7
4.868e+0, -7.020e-7
4.872e+0, -7.006e-7
4.876e+0, -6.992e-7
4.880e+0, -6.963e-7
4.884e+0, -6.996e-7
4.888e+0, -6.989e-7
4.892e+0, -6.984e-7
4.896e+0, -6.981e-7
4.900e+0, -6.986e-7
4.904e+0, -6.985e-7
4.908e+0, -6.950e-7
4.912e+0, -6.973e-7
4.916e+0, -6.944e-7
4.920e+0, -6.934e-7
4.924e+0, -6.977e-7
4.928e+0, -6.942e-7
4.932e+0, -6.933e-7
4.936e+0, -6.934e-7
4.940e+0, -6.944e-7
4.944e+0, -6.926e-7
4.948e+0, -6.918e-7
4.952e+0, -6.952e-7
4.956e+0, -6.904e-7
4.960e+0, -6.931e-7
4.964e+0, -6.937e-7
4.968e+0, -6.931e-7
4.972e+0, -6.952e-7
4.976e+0, -6.904e-7
4.980e+0, -6.917e-7
4.984e+0, -6.914e-7
4.988e+0, -6.888e-7
4.992e+0, -6.935e-7
4.996e+0, -6.929e-7
5.000e+0, -6.906e-7
4.990e-1, 1.223e-6
4.980e-1, 4.216e-6
4.970e-1, 4.440e-6
4.960e-1, 4.612e-6
4.950e-1, 4.735e-6
4.940e-1, 4.916e-6
4.930e-1, 4.938e-6
4.920e-1, 5.138e-6
4.910e-1, 5.211e-6
4.900e-1, 5.279e-6
4.890e-1, 5.463e-6
4.880e-1, 5.377e-6
4.870e-1, 5.635e-6
4.860e-1, 5.675e-6
4.850e-1, 5.430e-6
4.840e-1, 5.746e-6
4.830e-1, 5.832e-6
4.820e-1, 5.765e-6
4.810e-1, 5.992e-6
4.800e-1, 5.967e-6
4.790e-1, 5.973e-6
4.780e-1, 6.241e-6
4.770e-1, 6.087e-6
4.760e-1, 6.195e-6
4.750e-1, 6.281e-6
4.740e-1, 6.311e-6
4.730e-1, 6.480e-6
4.720e-1, 6.327e-6
4.710e-1, 6.410e-6
4.700e-1, 6.542e-6
4.690e-1, 6.563e-6
4.680e-1, 6.606e-6
4.670e-1, 6.665e-6
4.660e-1, 6.656e-6
4.650e-1, 6.809e-6
4.640e-1, 6.788e-6
4.630e-1, 6.778e-6
4.620e-1, 6.932e-6
4.610e-1, 6.911e-6
4.600e-1, 7.067e-6
4.590e-1, 6.972e-6
4.580e-1, 6.966e-6
4.570e-1, 7.178e-6
4.560e-1, 7.101e-6
4.550e-1, 7.150e-6
4.540e-1, 7.270e-6
4.530e-1, 7.166e-6
4.520e-1, 7.301e-6
4.510e-1, 7.375e-6
4.500e-1, 7.445e-6
4.490e-1, 7.381e-6
4.480e-1, 7.451e-6
4.470e-1, 7.461e-6
4.460e-1, 7.544e-6
4.450e-1, 7.522e-6
4.440e-1, 7.630e-6
4.430e-1, 7.583e-6
4.420e-1, 7.657e-6
4.410e-1, 7.789e-6
4.400e-1, 7.725e-6
4.390e-1, 7.691e-6
4.380e-1, 7.888e-6
4.370e-1, 7.795e-6
4.360e-1, 7.888e-6
4.350e-1, 7.915e-6
4.340e-1, 7.842e-6
4.330e-1, 8.103e-6
4.320e-1, 8.038e-6
4.310e-1, 7.937e-6
4.300e-1, 8.146e-6
4.290e-1, 8.054e-6
4.280e-1, 8.241e-6
4.270e-1, 8.213e-6
4.260e-1, 8.158e-6
4.250e-1, 8.389e-6
4.240e-1, 8.216e-6
4.230e-1, 8.306e-6
4.220e-1, 8.450e-6
4.210e-1, 8.281e-6
4.200e-1, 8.459e-6
4.190e-1, 8.462e-6
4.180e-1, 8.471e-6
4.170e-1, 8.585e-6
4.160e-1, 8.502e-6
4.150e-1, 8.542e-6
4.140e-1, 8.668e-6
4.130e-1, 8.640e-6
4.120e-1, 8.693e-6
4.110e-1, 8.696e-6
4.100e-1, 8.742e-6
4.090e-1, 9.040e-6
4.080e-1, 8.763e-6
4.070e-1, 8.782e-6
4.060e-1, 8.978e-6
4.050e-1, 8.825e-6
4.040e-1, 9.015e-6
4.030e-1, 8.920e-6
4.020e-1, 8.975e-6
4.010e-1, 9.163e-6
4.000e-1, 9.052e-6
3.990e-1, 9.052e-6
3.980e-1, 9.190e-6
3.970e-1, 9.132e-6
3.960e-1, 9.197e-6
3.950e-1, 9.240e-6
3.940e-1, 9.298e-6
3.930e-1, 9.292e-6
3.920e-1, 9.273e-6
3.910e-1, 9.356e-6
3.900e-1, 9.488e-6
3.890e-1, 9.356e-6
3.880e-1, 9.473e-6
3.870e-1, 9.535e-6
3.860e-1, 9.504e-6
3.850e-1, 9.611e-6
3.840e-1, 9.618e-6
3.830e-1, 9.596e-6
3.820e-1, 9.716e-6
3.810e-1, 9.627e-6
3.800e-1, 9.722e-6
3.790e-1, 9.716e-6
3.780e-1, 9.820e-6
3.770e-1, 9.882e-6
3.760e-1, 9.839e-6
3.750e-1, 9.866e-6
3.740e-1, 9.894e-6
3.730e-1, 9.848e-6
3.720e-1, 1.005e-5
3.710e-1, 1.005e-5
3.700e-1, 9.977e-6
3.690e-1, 1.016e-5
3.680e-1, 1.010e-5
3.670e-1, 1.005e-5
3.660e-1, 1.028e-5
3.650e-1, 1.018e-5
3.640e-1, 1.033e-5
3.630e-1, 1.025e-5
3.620e-1, 1.028e-5
3.610e-1, 1.049e-5
3.600e-1, 1.033e-5
3.590e-1, 1.039e-5
3.580e-1, 1.075e-5
3.570e-1, 1.027e-5
3.560e-1, 1.051e-5
3.550e-1, 1.058e-5
3.540e-1, 1.049e-5
3.530e-1, 1.072e-5
3.520e-1, 1.068e-5
3.510e-1, 1.075e-5
3.500e-1, 1.087e-5
3.490e-1, 1.072e-5
3.480e-1, 1.085e-5
3.470e-1, 1.089e-5
3.460e-1, 1.094e-5
3.450e-1, 1.107e-5
3.440e-1, 1.090e-5
3.430e-1, 1.104e-5
3.420e-1, 1.113e-5
3.410e-1, 1.107e-5
3.400e-1, 1.120e-5
3.390e-1, 1.123e-5
3.380e-1, 1.137e-5
3.370e-1, 1.127e-5
3.360e-1, 1.130e-5
3.350e-1, 1.133e-5
3.340e-1, 1.149e-5
3.330e-1, 1.147e-5
3.320e-1, 1.163e-5
3.310e-1, 1.155e-5
3.300e-1, 1.163e-5
3.290e-1, 1.177e-5
3.280e-1, 1.162e-5
3.270e-1, 1.180e-5
3.260e-1, 1.196e-5
3.250e-1, 1.186e-5
3.240e-1, 1.196e-5
3.230e-1, 1.202e-5
3.220e-1, 1.203e-5
3.210e-1, 1.219e-5
3.200e-1, 1.233e-5
3.190e-1, 1.216e-5
3.180e-1, 1.233e-5
3.170e-1, 1.233e-5
3.160e-1, 1.247e-5
3.150e-1, 1.250e-5
3.140e-1, 1.263e-5
3.130e-1, 1.277e-5
3.120e-1, 1.268e-5
3.110e-1, 1.280e-5
3.100e-1, 1.297e-5
3.090e-1, 1.291e-5
3.080e-1, 1.309e-5
3.070e-1, 1.317e-5
3.060e-1, 1.318e-5
3.050e-1, 1.340e-5
3.040e-1, 1.342e-5
3.030e-1, 1.343e-5
3.020e-1, 1.366e-5
3.010e-1, 1.383e-5
3.000e-1, 1.374e-5
2.990e-1, 1.385e-5
2.980e-1, 1.395e-5
2.970e-1, 1.418e-5
2.960e-1, 1.416e-5
2.950e-1, 1.430e-5
2.940e-1, 1.462e-5
2.930e-1, 1.445e-5
2.920e-1, 1.473e-5
2.910e-1, 1.483e-5
2.900e-1, 1.489e-5
2.890e-1, 1.517e-5
2.880e-1, 1.520e-5
2.870e-1, 1.538e-5
2.860e-1, 1.555e-5
2.850e-1, 1.566e-5
2.840e-1, 1.593e-5
2.830e-1, 1.599e-5
2.820e-1, 1.607e-5
2.810e-1, 1.648e-5
2.800e-1, 1.630e-5
2.790e-1, 1.661e-5
2.780e-1, 1.691e-5
2.770e-1, 1.692e-5
2.760e-1, 1.724e-5
2.750e-1, 1.744e-5
2.740e-1, 1.765e-5
2.730e-1, 1.790e-5
2.720e-1, 1.797e-5
2.710e-1, 1.822e-5
2.700e-1, 1.857e-5
2.690e-1, 1.863e-5
2.680e-1, 1.901e-5
2.670e-1, 1.914e-5
2.660e-1, 1.939e-5
2.650e-1, 1.975e-5
2.640e-1, 2.006e-5
2.630e-1, 2.009e-5
2.620e-1, 2.048e-5
2.610e-1, 2.068e-5
2.600e-1, 2.101e-5
2.590e-1, 2.131e-5
2.580e-1, 2.156e-5
2.570e-1, 2.194e-5
2.560e-1, 2.224e-5
2.550e-1, 2.254e-5
2.540e-1, 2.288e-5
2.530e-1, 2.305e-5
2.520e-1, 2.350e-5
2.510e-1, 2.383e-5
2.500e-1, 2.414e-5
2.490e-1, 2.461e-5
2.480e-1, 2.482e-5
2.470e-1, 2.519e-5
2.460e-1, 2.581e-5
2.450e-1, 2.582e-5
2.440e-1, 2.637e-5
2.430e-1, 2.668e-5
2.420e-1, 2.707e-5
2.410e-1, 2.755e-5
2.400e-1, 2.783e-5
2.390e-1, 2.822e-5
2.380e-1, 2.869e-5
2.370e-1, 2.912e-5
2.360e-1, 2.952e-5
2.350e-1, 2.989e-5
2.340e-1, 3.033e-5
2.330e-1, 3.083e-5
2.320e-1, 3.112e-5
2.310e-1, 3.158e-5
2.300e-1, 3.208e-5
2.290e-1, 3.228e-5
2.280e-1, 3.289e-5
2.270e-1, 3.348e-5
2.260e-1, 3.362e-5
2.250e-1, 3.417e-5
2.240e-1, 3.451e-5
2.230e-1, 3.500e-5
2.220e-1, 3.544e-5
2.210e-1, 3.577e-5
2.200e-1, 3.628e-5
2.190e-1, 3.665e-5
2.180e-1, 3.708e-5
2.170e-1, 3.771e-5
2.160e-1, 3.778e-5
2.150e-1, 3.825e-5
2.140e-1, 3.873e-5
2.130e-1, 3.897e-5
2.120e-1, 3.954e-5
2.110e-1, 3.988e-5
2.100e-1, 4.023e-5
2.090e-1, 4.083e-5
2.080e-1, 4.093e-5
2.070e-1, 4.123e-5
2.060e-1, 4.172e-5
2.050e-1, 4.193e-5
2.040e-1, 4.247e-5
2.030e-1, 4.258e-5
2.020e-1, 4.291e-5
2.010e-1, 4.331e-5
2.000e-1, 4.344e-5
1.990e-1, 4.373e-5
1.980e-1, 4.418e-5
1.970e-1, 4.432e-5
1.960e-1, 4.459e-5
1.950e-1, 4.483e-5
1.940e-1, 4.502e-5
1.930e-1, 4.529e-5
1.920e-1, 4.546e-5
1.910e-1, 4.560e-5
1.900e-1, 4.601e-5
1.890e-1, 4.594e-5
1.880e-1, 4.621e-5
1.870e-1, 4.625e-5
1.860e-1, 4.646e-5
1.850e-1, 4.661e-5
1.840e-1, 4.668e-5
1.830e-1, 4.676e-5
1.820e-1, 4.696e-5
1.810e-1, 4.688e-5
1.800e-1, 4.710e-5
1.790e-1, 4.721e-5
1.780e-1, 4.712e-5
1.770e-1, 4.725e-5
1.760e-1, 4.724e-5
1.750e-1, 4.723e-5
1.740e-1, 4.739e-5
1.730e-1, 4.727e-5
1.720e-1, 4.751e-5
1.710e-1, 4.728e-5
1.700e-1, 4.725e-5
1.690e-1, 4.739e-5
1.680e-1, 4.717e-5
1.670e-1, 4.720e-5
1.660e-1, 4.730e-5
1.650e-1, 4.703e-5
1.640e-1, 4.712e-5
1.630e-1, 4.704e-5
1.620e-1, 4.688e-5
1.610e-1, 4.700e-5
1.600e-1, 4.690e-5
1.590e-1, 4.665e-5
1.580e-1, 4.678e-5
1.570e-1, 4.652e-5
1.560e-1, 4.658e-5
1.550e-1, 4.642e-5
1.540e-1, 4.629e-5
1.530e-1, 4.649e-5
1.520e-1, 4.594e-5
1.510e-1, 4.592e-5
1.500e-1, 4.598e-5
1.490e-1, 4.568e-5
1.480e-1, 4.566e-5
1.470e-1, 4.556e-5
1.460e-1, 4.539e-5
1.450e-1, 4.536e-5
1.440e-1, 4.518e-5
1.430e-1, 4.500e-5
1.420e-1, 4.503e-5
1.410e-1, 4.480e-5
1.400e-1, 4.479e-5
1.390e-1, 4.452e-5
1.380e-1, 4.443e-5
1.370e-1, 4.441e-5
1.360e-1, 4.418e-5
1.350e-1, 4.425e-5
1.340e-1, 4.396e-5
1.330e-1, 4.373e-5
1.320e-1, 4.374e-5
1.310e-1, 4.362e-5
1.300e-1, 4.340e-5
1.290e-1, 4.343e-5
1.280e-1, 4.323e-5
1.270e-1, 4.305e-5
1.260e-1, 4.305e-5
1.250e-1, 4.277e-5
1.240e-1, 4.272e-5
1.230e-1, 4.264e-5
1.220e-1, 4.248e-5
1.210e-1, 4.250e-5
1.200e-1, 4.224e-5
1.190e-1, 4.210e-5
1.180e-1, 4.213e-5
1.170e-1, 4.181e-5
1.160e-1, 4.192e-5
1.150e-1, 4.174e-5
1.140e-1, 4.142e-5
1.130e-1, 4.154e-5
1.120e-1, 4.134e-5
1.110e-1, 4.119e-5
1.100e-1, 4.121e-5
1.090e-1, 4.098e-5
1.080e-1, 4.098e-5
1.070e-1, 4.087e-5
1.060e-1, 4.067e-5
1.050e-1, 4.070e-5
1.040e-1, 4.046e-5
1.030e-1, 4.040e-5
1.020e-1, 4.052e-5
1.010e-1, 4.005e-5
1.000e-1, 4.017e-5
9.900e-2, 4.001e-5
9.800e-2, 3.988e-5
9.700e-2, 3.998e-5
9.600e-2, 3.968e-5
9.500e-2, 3.959e-5
9.400e-2, 3.969e-5
9.300e-2, 3.940e-5
9.200e-2, 3.941e-5
9.100e-2, 3.931e-5
9.000e-2, 3.920e-5
8.900e-2, 3.924e-5
8.800e-2, 3.891e-5
8.700e-2, 3.890e-5
8.600e-2, 3.899e-5
8.500e-2, 3.866e-5
8.400e-2, 3.877e-5
8.300e-2, 3.866e-5
8.200e-2, 3.850e-5
8.100e-2, 3.852e-5
8.000e-2, 3.836e-5
7.900e-2, 3.832e-5
7.800e-2, 3.834e-5
7.700e-2, 3.812e-5
7.600e-2, 3.810e-5
7.500e-2, 3.796e-5
7.400e-2, 3.791e-5
7.300e-2, 3.797e-5
7.200e-2, 3.774e-5
7.100e-2, 3.766e-5
7.000e-2, 3.773e-5
6.900e-2, 3.756e-5
6.800e-2, 3.752e-5
6.700e-2, 3.744e-5
6.600e-2, 3.734e-5
6.500e-2, 3.736e-5
6.400e-2, 3.730e-5
6.300e-2, 3.714e-5
6.200e-2, 3.717e-5
6.100e-2, 3.717e-5
6.000e-2, 3.691e-5
5.900e-2, 3.691e-5
5.800e-2, 3.685e-5
5.700e-2, 3.692e-5
5.600e-2, 3.668e-5
5.500e-2, 3.667e-5
5.400e-2, 3.672e-5
5.300e-2, 3.651e-5
5.200e-2, 3.655e-5
5.100e-2, 3.648e-5
5.000e-2, 3.633e-5
4.900e-2, 3.641e-5
4.800e-2, 3.626e-5
4.700e-2, 3.618e-5
4.600e-2, 3.627e-5
4.500e-2, 3.605e-5
4.400e-2, 3.617e-5
4.300e-2, 3.601e-5
4.200e-2, 3.594e-5
4.100e-2, 3.613e-5
4.000e-2, 3.578e-5
3.900e-2, 3.577e-5
3.800e-2, 3.589e-5
3.700e-2, 3.560e-5
3.600e-2, 3.570e-5
3.500e-2, 3.565e-5
3.400e-2, 3.550e-5
3.300e-2, 3.563e-5
3.200e-2, 3.546e-5
3.100e-2, 3.544e-5
3.000e-2, 3.548e-5
2.900e-2, 3.532e-5
2.800e-2, 3.533e-5
2.700e-2, 3.527e-5
2.600e-2, 3.527e-5
2.500e-2, 3.536e-5
2.400e-2, 3.502e-5
2.300e-2, 3.518e-5
2.200e-2, 3.505e-5
2.100e-2, 3.494e-5
2.000e-2, 3.501e-5
1.900e-2, 3.497e-5
1.800e-2, 3.488e-5
1.700e-2, 3.498e-5
1.600e-2, 3.478e-5
1.500e-2, 3.482e-5
1.400e-2, 3.478e-5
1.300e-2, 3.471e-5
1.200e-2, 3.477e-5
1.100e-2, 3.466e-5
1.000e-2, 3.453e-5
9.003e-3, 3.468e-5
8.003e-3, 3.448e-5
7.003e-3, 3.457e-5
6.003e-3, 3.454e-5
5.003e-3, 3.436e-5
4.003e-3, 3.459e-5
3.003e-3, 3.440e-5
2.003e-3, 3.429e-5
1.003e-3, 3.441e-5
2.887e-6, 3.429e-5
-9.971e-4, 3.435e-5
-1.997e-3, 3.432e-5
-2.997e-3, 3.419e-5
-3.997e-3, 3.423e-5
-4.997e-3, 3.414e-5
-5.997e-3, 3.413e-5
-6.997e-3, 3.417e-5
-7.997e-3, 3.402e-5
-8.997e-3, 3.402e-5
-9.997e-3, 3.410e-5
-1.100e-2, 3.385e-5
-1.200e-2, 3.403e-5
-1.300e-2, 3.408e-5
-1.400e-2, 3.382e-5
-1.500e-2, 3.393e-5
-1.600e-2, 3.384e-5
-1.700e-2, 3.378e-5
-1.800e-2, 3.392e-5
-1.900e-2, 3.375e-5
-2.000e-2, 3.380e-5
-2.100e-2, 3.376e-5
-2.200e-2, 3.371e-5
-2.300e-2, 3.379e-5
-2.400e-2, 3.361e-5
-2.500e-2, 3.364e-5
-2.600e-2, 3.370e-5
-2.700e-2, 3.349e-5
-2.800e-2, 3.362e-5
-2.900e-2, 3.353e-5
-3.000e-2, 3.353e-5
-3.100e-2, 3.354e-5
-3.200e-2, 3.353e-5
-3.300e-2, 3.367e-5
-3.400e-2, 3.346e-5
-3.500e-2, 3.335e-5
-3.600e-2, 3.341e-5
-3.700e-2, 3.347e-5
-3.800e-2, 3.337e-5
-3.900e-2, 3.348e-5
-4.000e-2, 3.327e-5
-4.100e-2, 3.332e-5
-4.200e-2, 3.340e-5
-4.300e-2, 3.322e-5
-4.400e-2, 3.332e-5
-4.500e-2, 3.329e-5
-4.600e-2, 3.322e-5
-4.700e-2, 3.332e-5
-4.800e-2, 3.316e-5
-4.900e-2, 3.316e-5
-5.000e-2, 3.325e-5
-5.100e-2, 3.333e-5
-5.200e-2, 3.317e-5
-5.300e-2, 3.309e-5
-5.400e-2, 3.309e-5
-5.500e-2, 3.318e-5
-5.600e-2, 3.303e-5
-5.700e-2, 3.308e-5
-5.800e-2, 3.319e-5
-5.900e-2, 3.299e-5
-6.000e-2, 3.306e-5
-6.100e-2, 3.303e-5
-6.200e-2, 3.296e-5
-6.300e-2, 3.310e-5
-6.400e-2, 3.303e-5
-6.500e-2, 3.286e-5
-6.600e-2, 3.306e-5
-6.700e-2, 3.291e-5
-6.800e-2, 3.294e-5
-6.900e-2, 3.294e-5
-7.000e-2, 3.313e-5
-7.100e-2, 3.290e-5
-7.200e-2, 3.284e-5
-7.300e-2, 3.286e-5
-7.400e-2, 3.296e-5
-7.500e-2, 3.285e-5
-7.600e-2, 3.286e-5
-7.700e-2, 3.292e-5
-7.800e-2, 3.271e-5
-7.900e-2, 3.293e-5
-8.000e-2, 3.283e-5
-8.100e-2, 3.277e-5
-8.200e-2, 3.288e-5
-8.300e-2, 3.276e-5
-8.400e-2, 3.282e-5
-8.500e-2, 3.274e-5
-8.600e-2, 3.277e-5
-8.700e-2, 3.285e-5
-8.800e-2, 3.275e-5
-8.900e-2, 3.268e-5
-9.000e-2, 3.286e-5
-9.100e-2, 3.262e-5
-9.200e-2, 3.271e-5
-9.300e-2, 3.275e-5
-9.400e-2, 3.267e-5
-9.500e-2, 3.278e-5
-9.600e-2, 3.271e-5
-9.700e-2, 3.262e-5
-9.800e-2, 3.278e-5
-9.900e-2, 3.264e-5
-1.000e-1, 3.270e-5
-1.010e-1, 3.266e-5
-1.020e-1, 3.262e-5
-1.030e-1, 3.290e-5
-1.040e-1, 3.247e-5
-1.050e-1, 3.261e-5
-1.060e-1, 3.267e-5
-1.070e-1, 3.266e-5
-1.080e-1, 3.260e-5
-1.090e-1, 3.262e-5
-1.100e-1, 3.265e-5
-1.110e-1, 3.265e-5
-1.120e-1, 3.258e-5
-1.130e-1, 3.253e-5
-1.140e-1, 3.270e-5
-1.150e-1, 3.255e-5
-1.160e-1, 3.265e-5
-1.170e-1, 3.257e-5
-1.180e-1, 3.256e-5
-1.190e-1, 3.265e-5
-1.200e-1, 3.252e-5
-1.210e-1, 3.258e-5
-1.220e-1, 3.262e-5
-1.230e-1, 3.249e-5
-1.240e-1, 3.255e-5
-1.250e-1, 3.267e-5
-1.260e-1, 3.247e-5
-1.270e-1, 3.258e-5
-1.280e-1, 3.263e-5
-1.290e-1, 3.246e-5
-1.300e-1, 3.263e-5
-1.310e-1, 3.248e-5
-1.320e-1, 3.257e-5
-1.330e-1, 3.255e-5
-1.340e-1, 3.254e-5
-1.350e-1, 3.259e-5
-1.360e-1, 3.254e-5
-1.370e-1, 3.249e-5
-1.380e-1, 3.263e-5
-1.390e-1, 3.244e-5
-1.400e-1, 3.260e-5
-1.410e-1, 3.253e-5
-1.420e-1, 3.248e-5
-1.430e-1, 3.262e-5
-1.440e-1, 3.268e-5
-1.450e-1, 3.236e-5
-1.460e-1, 3.258e-5
-1.470e-1, 3.256e-5
-1.480e-1, 3.253e-5
-1.490e-1, 3.254e-5
-1.500e-1, 3.255e-5
-1.510e-1, 3.261e-5
-1.520e-1, 3.256e-5
-1.530e-1, 3.251e-5
-1.540e-1, 3.264e-5
-1.550e-1, 3.239e-5
-1.560e-1, 3.257e-5
-1.570e-1, 3.257e-5
-1.580e-1, 3.251e-5
-1.590e-1, 3.264e-5
-1.600e-1, 3.253e-5
-1.610e-1, 3.252e-5
-1.620e-1, 3.276e-5
-1.630e-1, 3.246e-5
-1.640e-1, 3.253e-5
-1.650e-1, 3.256e-5
-1.660e-1, 3.259e-5
-1.670e-1, 3.272e-5
-1.680e-1, 3.248e-5
-1.690e-1, 3.251e-5
-1.700e-1, 3.270e-5
-1.710e-1, 3.250e-5
-1.720e-1, 3.264e-5
-1.730e-1, 3.264e-5
-1.740e-1, 3.257e-5
-1.750e-1, 3.267e-5
-1.760e-1, 3.259e-5
-1.770e-1, 3.259e-5
-1.780e-1, 3.267e-5
-1.790e-1, 3.257e-5
-1.800e-1, 3.273e-5
-1.810e-1, 3.262e-5
-1.820e-1, 3.261e-5
-1.830e-1, 3.266e-5
-1.840e-1, 3.260e-5
-1.850e-1, 3.260e-5
-1.860e-1, 3.277e-5
-1.870e-1, 3.258e-5
-1.880e-1, 3.270e-5
-1.890e-1, 3.271e-5
-1.900e-1, 3.262e-5
-1.910e-1, 3.275e-5
-1.920e-1, 3.270e-5
-1.930e-1, 3.268e-5
-1.940e-1, 3.279e-5
-1.950e-1, 3.267e-5
-1.960e-1, 3.276e-5
-1.970e-1, 3.273e-5
-1.980e-1, 3.275e-5
-1.990e-1, 3.286e-5
-2.000e-1, 3.270e-5
4.000e-3, 2.392e-5
8.000e-3, 2.239e-5
1.200e-2, 2.118e-5
1.600e-2, 2.018e-5
2.000e-2, 1.932e-5
2.400e-2, 1.856e-5
2.800e-2, 1.789e-5
3.200e-2, 1.729e-5
3.600e-2, 1.674e-5
4.000e-2, 1.623e-5
4.400e-2, 1.577e-5
4.800e-2, 1.535e-5
5.200e-2, 1.496e-5
5.600e-2, 1.459e-5
6.000e-2, 1.424e-5
6.400e-2, 1.392e-5
6.800e-2, 1.362e-5
7.200e-2, 1.333e-5
7.600e-2, 1.307e-5
8.000e-2, 1.281e-5
8.400e-2, 1.256e-5
8.800e-2, 1.234e-5
9.200e-2, 1.212e-5
9.600e-2, 1.191e-5
1.000e-1, 1.171e-5
1.040e-1, 1.151e-5
1.080e-1, 1.133e-5
1.120e-1, 1.116e-5
1.160e-1, 1.099e-5
1.200e-1, 1.083e-5
1.240e-1, 1.067e-5
1.280e-1, 1.052e-5
1.320e-1, 1.038e-5
1.360e-1, 1.024e-5
1.400e-1, 1.011e-5
1.440e-1, 9.981e-6
1.480e-1, 9.854e-6
1.520e-1, 9.733e-6
1.560e-1, 9.618e-6
1.600e-1, 9.505e-6
1.640e-1, 9.387e-6
1.680e-1, 9.290e-6
1.720e-1, 9.183e-6
1.760e-1, 9.084e-6
1.800e-1, 8.988e-6
1.840e-1, 8.890e-6
1.880e-1, 8.800e-6
1.920e-1, 8.710e-6
1.960e-1, 8.622e-6
2.000e-1, 8.538e-6
2.040e-1, 8.454e-6
2.080e-1, 8.372e-6
2.120e-1, 8.294e-6
2.160e-1, 8.220e-6
2.200e-1, 8.140e-6
2.240e-1, 8.069e-6
2.280e-1, 8.002e-6
2.320e-1, 7.928e-6
2.360e-1, 7.857e-6
2.400e-1, 7.790e-6
2.440e-1, 7.727e-6
2.480e-1, 7.663e-6
2.520e-1, 7.602e-6
2.560e-1, 7.538e-6
2.600e-1, 7.479e-6
2.640e-1, 7.423e-6
2.680e-1, 7.363e-6
2.720e-1, 7.310e-6
2.760e-1, 7.251e-6
2.800e-1, 7.197e-6
2.840e-1, 7.146e-6
2.880e-1, 7.093e-6
2.920e-1, 7.040e-6
2.960e-1, 6.991e-6
3.000e-1, 6.943e-6
3.040e-1, 6.894e-6
3.080e-1, 6.849e-6
3.120e-1, 6.804e-6
3.160e-1, 6.754e-6
3.200e-1, 6.712e-6
3.240e-1, 6.667e-6
3.280e-1, 6.625e-6
3.320e-1, 6.584e-6
3.360e-1, 6.538e-6
3.400e-1, 6.500e-6
3.440e-1, 6.461e-6
3.480e-1, 6.418e-6
3.520e-1, 6.382e-6
3.560e-1, 6.341e-6
3.600e-1, 6.302e-6
3.640e-1, 6.265e-6
3.680e-1, 6.230e-6
3.720e-1, 6.196e-6
3.760e-1, 6.155e-6
3.800e-1, 6.124e-6
3.840e-1, 6.088e-6
3.880e-1, 6.053e-6
3.920e-1, 6.024e-6
3.960e-1, 5.987e-6
4.000e-1, 5.956e-6
4.040e-1, 5.924e-6
4.080e-1, 5.890e-6
4.120e-1, 5.861e-6
4.160e-1, 5.830e-6
4.200e-1, 5.801e-6
4.240e-1, 5.770e-6
4.280e-1, 5.740e-6
4.320e-1, 5.711e-6
4.360e-1, 5.684e-6
4.400e-1, 5.655e-6
4.440e-1, 5.628e-6
4.480e-1, 5.598e-6
4.520e-1, 5.574e-6
4.560e-1, 5.540e-6
4.600e-1, 5.520e-6
4.640e-1, 5.493e-6
4.680e-1, 5.463e-6
4.720e-1, 5.446e-6
4.760e-1, 5.417e-6
4.800e-1, 5.391e-6
4.840e-1, 5.368e-6
4.880e-1, 5.342e-6
4.920e-1, 5.321e-6
4.960e-1, 5.298e-6
5.000e-1, 5.272e-6
5.040e-1, 5.249e-6
5.080e-1, 5.226e-6
5.120e-1, 5.206e-6
5.160e-1, 5.181e-6
5.200e-1, 5.163e-6
5.240e-1, 5.139e-6
5.280e-1, 5.113e-6
5.320e-1, 5.099e-6
5.360e-1, 5.073e-6
5.400e-1, 5.053e-6
5.440e-1, 5.034e-6
5.480e-1, 5.008e-6
5.520e-1, 4.992e-6
5.560e-1, 4.970e-6
5.600e-1, 4.953e-6
5.640e-1, 4.935e-6
5.680e-1, 4.911e-6
5.720e-1, 4.893e-6
5.760e-1, 4.873e-6
5.800e-1, 4.856e-6
5.840e-1, 4.838e-6
5.880e-1, 4.819e-6
5.920e-1, 4.802e-6
5.960e-1, 4.780e-6
6.000e-1, 4.763e-6
6.040e-1, 4.750e-6
6.080e-1, 4.727e-6
6.120e-1, 4.713e-6
6.160e-1, 4.695e-6
6.200e-1, 4.677e-6
6.240e-1, 4.663e-6
6.280e-1, 4.643e-6
6.320e-1, 4.624e-6
6.360e-1, 4.614e-6
6.400e-1, 4.594e-6
6.440e-1, 4.581e-6
6.480e-1, 4.564e-6
6.520e-1, 4.549e-6
6.560e-1, 4.534e-6
6.600e-1, 4.518e-6
6.640e-1, 4.501e-6
6.680e-1, 4.486e-6
6.720e-1, 4.473e-6
6.760e-1, 4.457e-6
6.800e-1, 4.442e-6
6.840e-1, 4.432e-6
6.880e-1, 4.410e-6
6.920e-1, 4.398e-6
6.960e-1, 4.387e-6
7.000e-1, 4.369e-6
7.040e-1, 4.354e-6
7.080e-1, 4.338e-6
7.120e-1, 4.327e-6
7.160e-1, 4.314e-6
7.200e-1, 4.299e-6
7.240e-1, 4.287e-6
7.280e-1, 4.270e-6
7.320e-1, 4.260e-6
7.360e-1, 4.245e-6
7.400e-1, 4.232e-6
7.440e-1, 4.221e-6
7.480e-1, 4.205e-6
7.520e-1, 4.198e-6
7.560e-1, 4.184e-6
7.600e-1, 4.161e-6
7.640e-1, 4.157e-6
7.680e-1, 4.143e-6
7.720e-1, 4.128e-6
7.760e-1, 4.122e-6
7.800e-1, 4.105e-6
7.840e-1, 4.096e-6
7.880e-1, 4.082e-6
7.920e-1, 4.072e-6
7.960e-1, 4.058e-6
8.000e-1, 4.048e-6
8.040e-1, 4.037e-6
8.080e-1, 4.025e-6
8.120e-1, 4.013e-6
8.160e-1, 4.002e-6
8.200e-1, 3.989e-6
8.240e-1, 3.983e-6
8.280e-1, 3.967e-6
8.320e-1, 3.957e-6
8.360e-1, 3.950e-6
8.400e-1, 3.935e-6
8.440e-1, 3.925e-6
8.480e-1, 3.915e-6
8.520e-1, 3.902e-6
8.560e-1, 3.894e-6
8.600e-1, 3.887e-6
8.640e-1, 3.870e-6
8.680e-1, 3.860e-6
8.720e-1, 3.848e-6
8.760e-1, 3.839e-6
8.800e-1, 3.829e-6
8.840e-1, 3.819e-6
8.880e-1, 3.809e-6
8.920e-1, 3.797e-6
8.960e-1, 3.792e-6
9.000e-1, 3.777e-6
9.040e-1, 3.771e-6
9.080e-1, 3.759e-6
9.120e-1, 3.748e-6
9.160e-1, 3.741e-6
9.200e-1, 3.728e-6
9.240e-1, 3.719e-6
9.280e-1, 3.712e-6
9.320e-1, 3.701e-6
9.360e-1, 3.687e-6
9.400e-1, 3.684e-6
9.440e-1, 3.674e-6
9.480e-1, 3.667e-6
9.520e-1, 3.654e-6
9.560e-1, 3.648e-6
9.600e-1, 3.637e-6
9.640e-1, 3.631e-6
9.680e-1, 3.623e-6
9.720e-1, 3.611e-6
9.760e-1, 3.604e-6
9.800e-1, 3.592e-6
9.840e-1, 3.586e-6
9.880e-1, 3.582e-6
9.920e-1, 3.569e-6
9.960e-1, 3.561e-6
1.000e+0, 3.555e-6
1.004e+0, 3.542e-6
1.008e+0, 3.536e-6
1.012e+0, 3.526e-6
1.016e+0, 3.519e-6
1.020e+0, 3.509e-6
1.024e+0, 3.505e-6
1.028e+0, 3.495e-6
1.032e+0, 3.483e-6
1.036e+0, 3.477e-6
1.040e+0, 3.468e-6
1.044e+0, 3.462e-6
1.048e+0, 3.454e-6
1.052e+0, 3.444e-6
1.056e+0, 3.438e-6
1.060e+0, 3.430e-6
1.064e+0, 3.419e-6
1.068e+0, 3.412e-6
1.072e+0, 3.408e-6
1.076e+0, 3.399e-6
1.080e+0, 3.393e-6
1.084e+0, 3.383e-6
1.088e+0, 3.373e-6
1.092e+0, 3.371e-6
1.096e+0, 3.364e-6
1.100e+0, 3.352e-6
1.104e+0, 3.347e-6
1.108e+0, 3.340e-6
1.112e+0, 3.334e-6
1.116e+0, 3.326e-6
1.120e+0, 3.321e-6
1.124e+0, 3.310e-6
1.128e+0, 3.306e-6
1.132e+0, 3.296e-6
1.136e+0, 3.294e-6
1.140e+0, 3.285e-6
1.144e+0, 3.277e-6
1.148e+0, 3.271e-6
1.152e+0, 3.266e-6
1.156e+0, 3.256e-6
1.160e+0, 3.248e-6
1.164e+0, 3.245e-6
1.168e+0, 3.236e-6
1.172e+0, 3.230e-6
1.176e+0, 3.221e-6
1.180e+0, 3.216e-6
1.184e+0, 3.207e-6
1.188e+0, 3.203e-6
1.192e+0, 3.196e-6
1.196e+0, 3.191e-6
1.200e+0, 3.185e-6
1.204e+0, 3.175e-6
1.208e+0, 3.171e-6
1.212e+0, 3.165e-6
1.216e+0, 3.157e-6
1.220e+0, 3.152e-6
1.224e+0, 3.146e-6
1.228e+0, 3.136e-6
1.232e+0, 3.133e-6
1.236e+0, 3.125e-6
1.240e+0, 3.118e-6
1.244e+0, 3.115e-6
1.248e+0, 3.108e-6
1.252e+0, 3.103e-6
1.256e+0, 3.095e-6
1.260e+0, 3.089e-6
1.264e+0, 3.084e-6
1.268e+0, 3.080e-6
1.272e+0, 3.073e-6
1.276e+0, 3.066e-6
1.280e+0, 3.062e-6
1.284e+0, 3.056e-6
1.288e+0, 3.051e-6
1.292e+0, 3.048e-6
1.296e+0, 3.037e-6
1.300e+0, 3.035e-6
1.304e+0, 3.030e-6
1.308e+0, 3.021e-6
1.312e+0, 3.018e-6
1.316e+0, 3.009e-6
1.320e+0, 3.007e-6
1.324e+0, 3.000e-6
1.328e+0, 2.995e-6
1.332e+0, 2.989e-6
1.336e+0, 2.981e-6
1.340e+0, 2.979e-6
1.344e+0, 2.971e-6
1.348e+0, 2.965e-6
1.352e+0, 2.962e-6
1.356e+0, 2.954e-6
1.360e+0, 2.953e-6
1.364e+0, 2.946e-6
1.368e+0, 2.936e-6
1.372e+0, 2.938e-6
1.376e+0, 2.930e-6
1.380e+0, 2.922e-6
1.384e+0, 2.920e-6
1.388e+0, 2.914e-6
1.392e+0, 2.907e-6
1.396e+0, 2.905e-6
1.400e+0, 2.900e-6
1.404e+0, 2.890e-6
1.408e+0, 2.889e-6
1.412e+0, 2.886e-6
1.416e+0, 2.880e-6
1.420e+0, 2.875e-6
1.424e+0, 2.870e-6
1.428e+0, 2.863e-6
1.432e+0, 2.863e-6
1.436e+0, 2.856e-6
1.440e+0, 2.851e-6
1.444e+0, 2.848e-6
1.448e+0, 2.839e-6
1.452e+0, 2.835e-6
1.456e+0, 2.835e-6
1.460e+0, 2.827e-6
1.464e+0, 2.822e-6
1.468e+0, 2.819e-6
1.472e+0, 2.813e-6
1.476e+0, 2.808e-6
1.480e+0, 2.802e-6
1.484e+0, 2.800e-6
1.488e+0, 2.792e-6
1.492e+0, 2.789e-6
1.496e+0, 2.782e-6
1.500e+0, 2.781e-6
1.504e+0, 2.776e-6
1.508e+0, 2.767e-6
1.512e+0, 2.767e-6
1.516e+0, 2.762e-6
1.520e+0, 2.755e-6
1.524e+0, 2.755e-6
1.528e+0, 2.747e-6
1.532e+0, 2.743e-6
1.536e+0, 2.740e-6
1.540e+0, 2.737e-6
1.544e+0, 2.730e-6
1.548e+0, 2.725e-6
1.552e+0, 2.724e-6
1.556e+0, 2.720e-6
1.560e+0, 2.715e-6
1.564e+0, 2.712e-6
1.568e+0, 2.706e-6
1.572e+0, 2.705e-6
1.576e+0, 2.698e-6
1.580e+0, 2.693e-6
1.584e+0, 2.692e-6
1.588e+0, 2.684e-6
1.592e+0, 2.683e-6
1.596e+0, 2.681e-6
1.600e+0, 2.673e-6
1.604e+0, 2.670e-6
1.608e+0, 2.669e-6
1.612e+0, 2.662e-6
1.616e+0, 2.656e-6
1.620e+0, 2.651e-6
1.624e+0, 2.650e-6
1.628e+0, 2.644e-6
1.632e+0, 2.639e-6
1.636e+0, 2.636e-6
1.640e+0, 2.630e-6
1.644e+0, 2.632e-6
1.648e+0, 2.624e-6
1.652e+0, 2.621e-6
1.656e+0, 2.619e-6
1.660e+0, 2.612e-6
1.664e+0, 2.610e-6
1.668e+0, 2.606e-6
1.672e+0, 2.598e-6
1.676e+0, 2.600e-6
1.680e+0, 2.593e-6
1.684e+0, 2.588e-6
1.688e+0, 2.585e-6
1.692e+0, 2.585e-6
1.696e+0, 2.581e-6
1.700e+0, 2.574e-6
1.704e+0, 2.572e-6
1.708e+0, 2.567e-6
1.712e+0, 2.567e-6
1.716e+0, 2.561e-6
1.720e+0, 2.557e-6
1.724e+0, 2.554e-6
1.728e+0, 2.550e-6
1.732e+0, 2.547e-6
1.736e+0, 2.550e-6
1.740e+0, 2.537e-6
1.744e+0, 2.537e-6
1.748e+0, 2.533e-6
1.752e+0, 2.530e-6
1.756e+0, 2.527e-6
1.760e+0, 2.519e-6
1.764e+0, 2.519e-6
1.768e+0, 2.514e-6
1.772e+0, 2.511e-6
1.776e+0, 2.508e-6
1.780e+0, 2.503e-6
1.784e+0, 2.501e-6
1.788e+0, 2.496e-6
1.792e+0, 2.494e-6
1.796e+0, 2.493e-6
1.800e+0, 2.484e-6
1.804e+0, 2.487e-6
1.808e+0, 2.479e-6
1.812e+0, 2.474e-6
1.816e+0, 2.475e-6
1.820e+0, 2.470e-6
1.824e+0, 2.463e-6
1.828e+0, 2.465e-6
1.832e+0, 2.460e-6
1.836e+0, 2.458e-6
1.840e+0, 2.456e-6
1.844e+0, 2.451e-6
1.848e+0, 2.448e-6
1.852e+0, 2.447e-6
1.856e+0, 2.440e-6
1.860e+0, 2.439e-6
1.864e+0, 2.436e-6
1.868e+0, 2.432e-6
1.872e+0, 2.426e-6
1.876e+0, 2.430e-6
1.880e+0, 2.422e-6
1.884e+0, 2.419e-6
1.888e+0, 2.419e-6
1.892e+0, 2.411e-6
1.896e+0, 2.408e-6
1.900e+0, 2.406e-6
1.904e+0, 2.403e-6
1.908e+0, 2.401e-6
1.912e+0, 2.396e-6
1.916e+0, 2.394e-6
1.920e+0, 2.390e-6
1.924e+0, 2.386e-6
1.928e+0, 2.384e-6
1.932e+0, 2.380e-6
1.936e+0, 2.380e-6
1.940e+0, 2.374e-6
1.944e+0, 2.373e-6
1.948e+0, 2.371e-6
1.952e+0, 2.360e-6
1.956e+0, 2.363e-6
1.960e+0, 2.360e-6
1.964e+0, 2.354e-6
1.968e+0, 2.358e-6
1.972e+0, 2.351e-6
1.976e+0, 2.349e-6
1.980e+0, 2.345e-6
1.984e+0, 2.345e-6
1.988e+0, 2.342e-6
1.992e+0, 2.339e-6
1.996e+0, 2.336e-6
2.000e+0, 2.332e-6
2.004e+0, 2.330e-6
2.008e+0, 2.324e-6
2.012e+0, 2.328e-6
2.016e+0, 2.325e-6
2.020e+0, 2.318e-6
2.024e+0, 2.314e-6
2.028e+0, 2.313e-6
2.032e+0, 2.309e-6
2.036e+0, 2.307e-6
2.040e+0, 2.302e-6
2.044e+0, 2.298e-6
2.048e+0, 2.297e-6
2.052e+0, 2.296e-6
2.056e+0, 2.293e-6
2.060e+0, 2.289e-6
2.064e+0, 2.285e-6
2.068e+0, 2.283e-6
2.072e+0, 2.283e-6
2.076e+0, 2.281e-6
2.080e+0, 2.277e-6
2.084e+0, 2.273e-6
2.088e+0, 2.270e-6
2.092e+0, 2.264e-6
2.096e+0, 2.266e-6
2.100e+0, 2.264e-6
2.104e+0, 2.255e-6
2.108e+0, 2.258e-6
2.112e+0, 2.256e-6
2.116e+0, 2.254e-6
2.120e+0, 2.253e-6
2.124e+0, 2.247e-6
2.128e+0, 2.243e-6
2.132e+0, 2.243e-6
2.136e+0, 2.241e-6
2.140e+0, 2.239e-6
2.144e+0, 2.235e-6
2.148e+0, 2.233e-6
2.152e+0, 2.229e-6
2.156e+0, 2.228e-6
2.160e+0, 2.228e-6
2.164e+0, 2.223e-6
2.168e+0, 2.222e-6
2.172e+0, 2.217e-6
2.176e+0, 2.215e-6
2.180e+0, 2.215e-6
2.184e+0, 2.210e-6
2.188e+0, 2.209e-6
2.192e+0, 2.209e-6
2.196e+0, 2.202e-6
2.200e+0, 2.201e-6
2.204e+0, 2.199e-6
2.208e+0, 2.195e-6
2.212e+0, 2.193e-6
2.216e+0, 2.189e-6
2.220e+0, 2.188e-6
2.224e+0, 2.186e-6
2.228e+0, 2.183e-6
2.232e+0, 2.180e-6
2.236e+0, 2.178e-6
2.240e+0, 2.175e-6
2.244e+0, 2.173e-6
2.248e+0, 2.171e-6
2.252e+0, 2.169e-6
2.256e+0, 2.163e-6
2.260e+0, 2.163e-6
2.264e+0, 2.163e-6
2.268e+0, 2.157e-6
2.272e+0, 2.158e-6
2.276e+0, 2.154e-6
2.280e+0, 2.153e-6
2.284e+0, 2.151e-6
2.288e+0, 2.149e-6
2.292e+0, 2.148e-6
2.296e+0, 2.143e-6
2.300e+0, 2.141e-6
2.304e+0, 2.137e-6
2.308e+0, 2.137e-6
2.312e+0, 2.137e-6
2.316e+0, 2.132e-6
2.320e+0, 2.135e-6
2.324e+0, 2.128e-6
2.328e+0, 2.124e-6
2.332e+0, 2.130e-6
2.336e+0, 2.121e-6
2.340e+0, 2.118e-6
2.344e+0, 2.117e-6
2.348e+0, 2.115e-6
2.352e+0, 2.113e-6
2.356e+0, 2.113e-6
2.360e+0, 2.108e-6
2.364e+0, 2.106e-6
2.368e+0, 2.103e-6
2.372e+0, 2.103e-6
2.376e+0, 2.098e-6
2.380e+0, 2.097e-6
2.384e+0, 2.094e-6
2.388e+0, 2.092e-6
2.392e+0, 2.094e-6
2.396e+0, 2.086e-6
2.400e+0, 2.088e-6
2.404e+0, 2.085e-6
2.408e+0, 2.081e-6
2.412e+0, 2.083e-6
2.416e+0, 2.078e-6
2.420e+0, 2.072e-6
2.424e+0, 2.074e-6
2.428e+0, 2.072e-6
2.432e+0, 2.069e-6
2.436e+0, 2.071e-6
2.440e+0, 2.067e-6
2.444e+0, 2.065e-6
2.448e+0, 2.063e-6
2.452e+0, 2.062e-6
2.456e+0, 2.059e-6
2.460e+0, 2.058e-6
2.464e+0, 2.055e-6
2.468e+0, 2.052e-6
2.472e+0, 2.052e-6
2.476e+0, 2.048e-6
2.480e+0, 2.048e-6
2.484e+0, 2.049e-6
2.488e+0, 2.041e-6
2.492e+0, 2.041e-6
2.496e+0, 2.041e-6
2.500e+0, 2.036e-6
2.504e+0, 2.036e-6
2.508e+0, 2.032e-6
2.512e+0, 2.030e-6
2.516e+0, 2.027e-6
2.520e+0, 2.031e-6
2.524e+0, 2.028e-6
2.528e+0, 2.022e-6
2.532e+0, 2.021e-6
2.536e+0, 2.018e-6
2.540e+0, 2.016e-6
2.544e+0, 2.016e-6
2.548e+0, 2.012e-6
2.552e+0, 2.011e-6
2.556e+0, 2.010e-6
2.560e+0, 2.006e-6
2.564e+0, 2.008e-6
2.568e+0, 2.003e-6
2.572e+0, 2.000e-6
2.576e+0, 2.000e-6
2.580e+0, 1.997e-6
2.584e+0, 1.996e-6
2.588e+0, 1.993e-6
2.592e+0, 1.993e-6
2.596e+0, 1.988e-6
2.600e+0, 1.988e-6
2.604e+0, 1.989e-6
2.608e+0, 1.984e-6
2.612e+0, 1.984e-6
2.616e+0, 1.981e-6
2.620e+0, 1.976e-6
2.624e+0, 1.980e-6
2.628e+0, 1.974e-6
2.632e+0, 1.975e-6
2.636e+0, 1.973e-6
2.640e+0, 1.970e-6
2.644e+0, 1.971e-6
2.648e+0, 1.968e-6
2.652e+0, 1.966e-6
2.656e+0, 1.965e-6
2.660e+0, 1.963e-6
2.664e+0, 1.961e-6
2.668e+0, 1.959e-6
2.672e+0, 1.961e-6
2.676e+0, 1.955e-6
2.680e+0, 1.952e-6
2.684e+0, 1.953e-6
2.688e+0, 1.951e-6
2.692e+0, 1.949e-6
2.696e+0, 1.947e-6
2.700e+0, 1.944e-6
2.704e+0, 1.944e-6
2.708e+0, 1.942e-6
2.712e+0, 1.939e-6
2.716e+0, 1.939e-6
2.720e+0, 1.935e-6
2.724e+0, 1.934e-6
2.728e+0, 1.932e-6
2.732e+0, 1.932e-6
2.736e+0, 1.930e-6
2.740e+0, 1.927e-6
2.744e+0, 1.927e-6
2.748e+0, 1.921e-6
2.752e+0, 1.922e-6
2.756e+0, 1.923e-6
2.760e+0, 1.916e-6
2.764e+0, 1.919e-6
2.768e+0, 1.917e-6
2.772e+0, 1.911e-6
2.776e+0, 1.914e-6
2.780e+0, 1.910e-6
2.784e+0, 1.910e-6
2.788e+0, 1.907e-6
2.792e+0, 1.906e-6
2.796e+0, 1.907e-6
2.800e+0, 1.902e-6
2.804e+0, 1.903e-6
2.808e+0, 1.900e-6
2.812e+0, 1.900e-6
2.816e+0, 1.898e-6
2.820e+0, 1.894e-6
2.824e+0, 1.894e-6
2.828e+0, 1.891e-6
2.832e+0, 1.890e-6
2.836e+0, 1.890e-6
2.840e+0, 1.888e-6
2.844e+0, 1.888e-6
2.848e+0, 1.885e-6
2.852e+0, 1.883e-6
2.856e+0, 1.881e-6
2.860e+0, 1.886e-6
2.864e+0, 1.878e-6
2.868e+0, 1.877e-6
2.872e+0, 1.878e-6
2.876e+0, 1.874e-6
2.880e+0, 1.872e-6
2.884e+0, 1.872e-6
2.888e+0, 1.868e-6
2.892e+0, 1.866e-6
2.896e+0, 1.870e-6
2.900e+0, 1.863e-6
2.904e+0, 1.863e-6
2.908e+0, 1.862e-6
2.912e+0, 1.858e-6
2.916e+0, 1.858e-6
2.920e+0, 1.857e-6
2.924e+0, 1.856e-6
2.928e+0, 1.855e-6
2.932e+0, 1.850e-6
2.936e+0, 1.850e-6
2.940e+0, 1.848e-6
2.944e+0, 1.849e-6
2.948e+0, 1.848e-6
2.952e+0, 1.843e-6
2.956e+0, 1.843e-6
2.960e+0, 1.836e-6
2.964e+0, 1.841e-6
2.968e+0, 1.840e-6
2.972e+0, 1.832e-6
2.976e+0, 1.838e-6
2.980e+0, 1.834e-6
2.984e+0, 1.831e-6
2.988e+0, 1.833e-6
2.992e+0, 1.830e-6
2.996e+0, 1.825e-6
3.000e+0, 1.828e-6
3.004e+0, 1.827e-6
3.008e+0, 1.826e-6
3.012e+0, 1.824e-6
3.016e+0, 1.822e-6
3.020e+0, 1.820e-6
3.024e+0, 1.821e-6
3.028e+0, 1.820e-6
3.032e+0, 1.816e-6
3.036e+0, 1.817e-6
3.040e+0, 1.814e-6
3.044e+0, 1.810e-6
3.048e+0, 1.817e-6
3.052e+0, 1.811e-6
3.056e+0, 1.810e-6
3.060e+0, 1.808e-6
3.064e+0, 1.804e-6
3.068e+0, 1.804e-6
3.072e+0, 1.803e-6
3.076e+0, 1.802e-6
3.080e+0, 1.802e-6
3.084e+0, 1.801e-6
3.088e+0, 1.799e-6
3.092e+0, 1.794e-6
3.096e+0, 1.794e-6
3.100e+0, 1.793e-6
3.104e+0, 1.790e-6
3.108e+0, 1.792e-6
3.112e+0, 1.788e-6
3.116e+0, 1.788e-6
3.120e+0, 1.787e-6
3.124e+0, 1.783e-6
3.128e+0, 1.783e-6
3.132e+0, 1.781e-6
3.136e+0, 1.782e-6
3.140e+0, 1.780e-6
3.144e+0, 1.776e-6
3.148e+0, 1.772e-6
3.152e+0, 1.776e-6
3.156e+0, 1.776e-6
3.160e+0, 1.774e-6
3.164e+0, 1.773e-6
3.168e+0, 1.769e-6
3.172e+0, 1.765e-6
3.176e+0, 1.767e-6
3.180e+0, 1.767e-6
3.184e+0, 1.760e-6
3.188e+0, 1.764e-6
3.192e+0, 1.763e-6
3.196e+0, 1.763e-6
3.200e+0, 1.762e-6
3.204e+0, 1.755e-6
3.208e+0, 1.754e-6
3.212e+0, 1.756e-6
3.216e+0, 1.756e-6
3.220e+0, 1.754e-6
3.224e+0, 1.752e-6
3.228e+0, 1.751e-6
3.232e+0, 1.749e-6
3.236e+0, 1.750e-6
3.240e+0, 1.749e-6
3.244e+0, 1.745e-6
3.248e+0, 1.748e-6
3.252e+0, 1.743e-6
3.256e+0, 1.741e-6
3.260e+0, 1.747e-6
3.264e+0, 1.740e-6
3.268e+0, 1.738e-6
3.272e+0, 1.738e-6
3.276e+0, 1.736e-6
3.280e+0, 1.736e-6
3.284e+0, 1.734e-6
3.288e+0, 1.734e-6
3.292e+0, 1.732e-6
3.296e+0, 1.730e-6
3.300e+0, 1.730e-6
3.304e+0, 1.727e-6
3.308e+0, 1.728e-6
3.312e+0, 1.726e-6
3.316e+0, 1.724e-6
3.320e+0, 1.725e-6
3.324e+0, 1.722e-6
3.328e+0, 1.721e-6
3.332e+0, 1.718e-6
3.336e+0, 1.716e-6
3.340e+0, 1.719e-6
3.344e+0, 1.715e-6
3.348e+0, 1.714e-6
3.352e+0, 1.713e-6
3.356e+0, 1.711e-6
3.360e+0, 1.710e-6
3.364e+0, 1.710e-6
3.368e+0, 1.709e-6
3.372e+0, 1.708e-6
3.376e+0, 1.705e-6
3.380e+0, 1.705e-6
3.384e+0, 1.704e-6
3.388e+0, 1.703e-6
3.392e+0, 1.704e-6
3.396e+0, 1.695e-6
3.400e+0, 1.699e-6
3.404e+0, 1.698e-6
3.408e+0, 1.697e-6
3.412e+0, 1.698e-6
3.416e+0, 1.693e-6
3.420e+0, 1.693e-6
3.424e+0, 1.695e-6
3.428e+0, 1.692e-6
3.432e+0, 1.693e-6
3.436e+0, 1.689e-6
3.440e+0, 1.688e-6
3.444e+0, 1.688e-6
3.448e+0, 1.688e-6
3.452e+0, 1.687e-6
3.456e+0, 1.681e-6
3.460e+0, 1.683e-6
3.464e+0, 1.682e-6
3.468e+0, 1.681e-6
3.472e+0, 1.685e-6
3.476e+0, 1.677e-6
3.480e+0, 1.679e-6
3.484e+0, 1.679e-6
3.488e+0, 1.675e-6
3.492e+0, 1.676e-6
3.496e+0, 1.673e-6
3.500e+0, 1.671e-6
3.504e+0, 1.669e-6
3.508e+0, 1.669e-6
3.512e+0, 1.670e-6
3.516e+0, 1.666e-6
3.520e+0, 1.666e-6
3.524e+0, 1.664e-6
3.528e+0, 1.664e-6
3.532e+0, 1.664e-6
3.536e+0, 1.662e-6
3.540e+0, 1.661e-6
3.544e+0, 1.659e-6
3.548e+0, 1.655e-6
3.552e+0, 1.659e-6
3.556e+0, 1.656e-6
3.560e+0, 1.655e-6
3.564e+0, 1.656e-6
3.568e+0, 1.652e-6
3.572e+0, 1.650e-6
3.576e+0, 1.653e-6
3.580e+0, 1.650e-6
3.584e+0, 1.649e-6
3.588e+0, 1.647e-6
3.592e+0, 1.646e-6
3.596e+0, 1.646e-6
3.600e+0, 1.647e-6
3.604e+0, 1.644e-6
3.608e+0, 1.638e-6
3.612e+0, 1.643e-6
3.616e+0, 1.640e-6
3.620e+0, 1.641e-6
3.624e+0, 1.641e-6
3.628e+0, 1.636e-6
3.632e+0, 1.635e-6
3.636e+0, 1.637e-6
3.640e+0, 1.634e-6
3.644e+0, 1.637e-6
3.648e+0, 1.631e-6
3.652e+0, 1.632e-6
3.656e+0, 1.631e-6
3.660e+0, 1.633e-6
3.664e+0, 1.632e-6
3.668e+0, 1.625e-6
3.672e+0, 1.630e-6
3.676e+0, 1.626e-6
3.680e+0, 1.625e-6
3.684e+0, 1.629e-6
3.688e+0, 1.621e-6
3.692e+0, 1.623e-6
3.696e+0, 1.623e-6
3.700e+0, 1.620e-6
3.704e+0, 1.621e-6
3.708e+0, 1.615e-6
3.712e+0, 1.617e-6
3.716e+0, 1.616e-6
3.720e+0, 1.616e-6
3.724e+0, 1.614e-6
3.728e+0, 1.614e-6
3.732e+0, 1.614e-6
3.736e+0, 1.610e-6
3.740e+0, 1.608e-6
3.744e+0, 1.609e-6
3.748e+0, 1.607e-6
3.752e+0, 1.608e-6
3.756e+0, 1.605e-6
3.760e+0, 1.601e-6
3.764e+0, 1.605e-6
3.768e+0, 1.604e-6
3.772e+0, 1.602e-6
3.776e+0, 1.601e-6
3.780e+0, 1.600e-6
3.784e+0, 1.598e-6
3.788e+0, 1.598e-6
3.792e+0, 1.597e-6
3.796e+0, 1.595e-6
3.800e+0, 1.594e-6
3.804e+0, 1.597e-6
3.808e+0, 1.592e-6
3.812e+0, 1.594e-6
3.816e+0, 1.594e-6
3.820e+0, 1.584e-6
3.824e+0, 1.592e-6
3.828e+0, 1.589e-6
3.832e+0, 1.588e-6
3.836e+0, 1.589e-6
3.840e+0, 1.584e-6
3.844e+0, 1.586e-6
3.848e+0, 1.585e-6
3.852e+0, 1.584e-6
3.856e+0, 1.584e-6
3.860e+0, 1.581e-6
3.864e+0, 1.582e-6
3.868e+0, 1.580e-6
3.872e+0, 1.581e-6
3.876e+0, 1.578e-6
3.880e+0, 1.575e-6
3.884e+0, 1.579e-6
3.888e+0, 1.573e-6
3.892e+0, 1.573e-6
3.896e+0, 1.578e-6
3.900e+0, 1.570e-6
3.904e+0, 1.573e-6
3.908e+0, 1.572e-6
3.912e+0, 1.570e-6
3.916e+0, 1.570e-6
3.920e+0, 1.567e-6
3.924e+0, 1.569e-6
3.928e+0, 1.566e-6
3.932e+0, 1.564e-6
3.936e+0, 1.566e-6
3.940e+0, 1.565e-6
3.944e+0, 1.564e-6
3.948e+0, 1.560e-6
3.952e+0, 1.560e-6
3.956e+0, 1.561e-6
3.960e+0, 1.558e-6
3.964e+0, 1.559e-6
3.968e+0, 1.557e-6
3.972e+0, 1.553e-6
3.976e+0, 1.558e-6
3.980e+0, 1.554e-6
3.984e+0, 1.554e-6
3.988e+0, 1.553e-6
3.992e+0, 1.553e-6
3.996e+0, 1.548e-6
4.000e+0, 1.551e-6
4.004e+0, 1.551e-6
4.008e+0, 1.547e-6
4.012e+0, 1.547e-6
4.016e+0, 1.548e-6
4.020e+0, 1.547e-6
4.024e+0, 1.546e-6
4.028e+0, 1.546e-6
4.032e+0, 1.542e-6
4.036e+0, 1.541e-6
4.040e+0, 1.542e-6
4.044e+0, 1.543e-6
4.048e+0, 1.542e-6
4.052e+0, 1.539e-6
4.056e+0, 1.539e-6
4.060e+0, 1.538e-6
4.064e+0, 1.537e-6
4.068e+0, 1.538e-6
4.072e+0, 1.536e-6
4.076e+0, 1.535e-6
4.080e+0, 1.532e-6
4.084e+0, 1.538e-6
4.088e+0, 1.533e-6
4.092e+0, 1.530e-6
4.096e+0, 1.532e-6
4.100e+0, 1.530e-6
4.104e+0, 1.529e-6
4.108e+0, 1.533e-6
4.112e+0, 1.524e-6
4.116e+0, 1.525e-6
4.120e+0, 1.528e-6
4.124e+0, 1.525e-6
4.128e+0, 1.524e-6
4.132e+0, 1.522e-6
4.136e+0, 1.523e-6
4.140e+0, 1.520e-6
4.144e+0, 1.520e-6
4.148e+0, 1.520e-6
4.152e+0, 1.518e-6
4.156e+0, 1.519e-6
4.160e+0, 1.515e-6
4.164e+0, 1.516e-6
4.168e+0, 1.517e-6
4.172e+0, 1.513e-6
4.176e+0, 1.514e-6
4.180e+0, 1.512e-6
4.184e+0, 1.508e-6
4.188e+0, 1.513e-6
4.192e+0, 1.511e-6
4.196e+0, 1.508e-6
4.200e+0, 1.511e-6
4.204e+0, 1.507e-6
4.208e+0, 1.506e-6
4.212e+0, 1.508e-6
4.216e+0, 1.507e-6
4.220e+0, 1.502e-6
4.224e+0, 1.504e-6
4.228e+0, 1.505e-6
4.232e+0, 1.502e-6
4.236e+0, 1.504e-6
4.240e+0, 1.502e-6
4.244e+0, 1.501e-6
4.248e+0, 1.501e-6
4.252e+0, 1.499e-6
4.256e+0, 1.500e-6
4.260e+0, 1.499e-6
4.264e+0, 1.495e-6
4.268e+0, 1.496e-6
4.272e+0, 1.497e-6
4.276e+0, 1.494e-6
4.280e+0, 1.494e-6
4.284e+0, 1.492e-6
4.288e+0, 1.492e-6
4.292e+0, 1.491e-6
4.296e+0, 1.495e-6
4.300e+0, 1.490e-6
4.304e+0, 1.488e-6
4.308e+0, 1.493e-6
4.312e+0, 1.488e-6
4.316e+0, 1.486e-6
4.320e+0, 1.487e-6
4.324e+0, 1.485e-6
4.328e+0, 1.484e-6
4.332e+0, 1.487e-6
4.336e+0, 1.484e-6
4.340e+0, 1.482e-6
4.344e+0, 1.481e-6
4.348e+0, 1.480e-6
4.352e+0, 1.483e-6
4.356e+0, 1.481e-6
4.360e+0, 1.478e-6
4.364e+0, 1.475e-6
4.368e+0, 1.479e-6
4.372e+0, 1.473e-6
4.376e+0, 1.474e-6
4.380e+0, 1.476e-6
4.384e+0, 1.473e-6
4.388e+0, 1.474e-6
4.392e+0, 1.473e-6
4.396e+0, 1.470e-6
4.400e+0, 1.473e-6
4.404e+0, 1.469e-6
4.408e+0, 1.466e-6
4.412e+0, 1.471e-6
4.416e+0, 1.469e-6
4.420e+0, 1.468e-6
4.424e+0, 1.467e-6
4.428e+0, 1.467e-6
4.432e+0, 1.465e-6
4.436e+0, 1.465e-6
4.440e+0, 1.464e-6
4.444e+0, 1.465e-6
4.448e+0, 1.463e-6
4.452e+0, 1.463e-6
4.456e+0, 1.460e-6
4.460e+0, 1.464e-6
4.464e+0, 1.461e-6
4.468e+0, 1.459e-6
4.472e+0, 1.461e-6
4.476e+0, 1.457e-6
4.480e+0, 1.456e-6
4.484e+0, 1.462e-6
4.488e+0, 1.457e-6
4.492e+0, 1.455e-6
4.496e+0, 1.458e-6
4.500e+0, 1.452e-6
4.504e+0, 1.454e-6
4.508e+0, 1.451e-6
4.512e+0, 1.452e-6
4.516e+0, 1.448e-6
4.520e+0, 1.450e-6
4.524e+0, 1.449e-6
4.528e+0, 1.450e-6
4.532e+0, 1.449e-6
4.536e+0, 1.443e-6
4.540e+0, 1.447e-6
4.544e+0, 1.445e-6
4.548e+0, 1.446e-6
4.552e+0, 1.444e-6
4.556e+0, 1.443e-6
4.560e+0, 1.441e-6
4.564e+0, 1.444e-6
4.568e+0, 1.442e-6
4.572e+0, 1.443e-6
4.576e+0, 1.438e-6
4.580e+0, 1.440e-6
4.584e+0, 1.436e-6
4.588e+0, 1.438e-6
4.592e+0, 1.439e-6
4.596e+0, 1.434e-6
4.600e+0, 1.437e-6
4.604e+0, 1.436e-6
4.608e+0, 1.434e-6
4.612e+0, 1.436e-6
4.616e+0, 1.434e-6
4.620e+0, 1.434e-6
4.624e+0, 1.432e-6
4.628e+0, 1.431e-6
4.632e+0, 1.434e-6
4.636e+0, 1.432e-6
4.640e+0, 1.430e-6
4.644e+0, 1.430e-6
4.648e+0, 1.430e-6
4.652e+0, 1.428e-6
4.656e+0, 1.428e-6
4.660e+0, 1.427e-6
4.664e+0, 1.426e-6
4.668e+0, 1.424e-6
4.672e+0, 1.428e-6
4.676e+0, 1.424e-6
4.680e+0, 1.425e-6
4.684e+0, 1.427e-6
4.688e+0, 1.422e-6
4.692e+0, 1.421e-6
4.696e+0, 1.421e-6
4.700e+0, 1.419e-6
4.704e+0, 1.422e-6
4.708e+0, 1.423e-6
4.712e+0, 1.418e-6
4.716e+0, 1.417e-6
4.720e+0, 1.418e-6
4.724e+0, 1.418e-6
4.728e+0, 1.414e-6
4.732e+0, 1.416e-6
4.736e+0, 1.414e-6
4.740e+0, 1.415e-6
4.744e+0, 1.415e-6
4.748e+0, 1.411e-6
4.752e+0, 1.413e-6
4.756e+0, 1.409e-6
4.760e+0, 1.409e-6
4.764e+0, 1.411e-6
4.768e+0, 1.407e-6
4.772e+0, 1.406e-6
4.776e+0, 1.408e-6
4.780e+0, 1.407e-6
4.784e+0, 1.405e-6
4.788e+0, 1.406e-6
4.792e+0, 1.405e-6
4.796e+0, 1.400e-6
4.800e+0, 1.404e-6
4.804e+0, 1.407e-6
4.808e+0, 1.398e-6
4.812e+0, 1.403e-6
4.816e+0, 1.402e-6
4.820e+0, 1.401e-6
4.824e+0, 1.402e-6
4.828e+0, 1.401e-6
4.832e+0, 1.402e-6
4.836e+0, 1.399e-6
4.840e+0, 1.398e-6
4.844e+0, 1.399e-6
4.848e+0, 1.398e-6
4.852e+0, 1.398e-6
4.856e+0, 1.395e-6
4.860e+0, 1.396e-6
4.864e+0, 1.395e-6
4.868e+0, 1.395e-6
4.872e+0, 1.396e-6
4.876e+0, 1.393e-6
4.880e+0, 1.390e-6
4.884e+0, 1.398e-6
4.888e+0, 1.391e-6
4.892e+0, 1.391e-6
4.896e+0, 1.394e-6
4.900e+0, 1.386e-6
4.904e+0, 1.391e-6
4.908e+0, 1.386e-6
4.912e+0, 1.387e-6
4.916e+0, 1.386e-6
4.920e+0, 1.389e-6
4.924e+0, 1.387e-6
4.928e+0, 1.383e-6
4.932e+0, 1.384e-6
4.936e+0, 1.384e-6
4.940e+0, 1.381e-6
4.944e+0, 1.382e-6
4.948e+0, 1.380e-6
4.952e+0, 1.381e-6
4.956e+0, 1.380e-6
4.960e+0, 1.378e-6
4.964e+0, 1.379e-6
4.968e+0, 1.377e-6
4.972e+0, 1.377e-6
4.976e+0, 1.378e-6
4.980e+0, 1.375e-6
4.984e+0, 1.372e-6
4.988e+0, 1.376e-6
4.992e+0, 1.375e-6
4.996e+0, 1.373e-6
5.000e+0, 1.372e-6
-1.990e-1, -5.250e-7
-1.980e-1, -3.370e-6
-1.970e-1, -3.370e-6
-1.960e-1, -3.613e-6
-1.950e-1, -3.727e-6
-1.940e-1, -3.831e-6
-1.930e-1, -4.025e-6
-1.920e-1, -4.025e-6
-1.910e-1, -4.098e-6
-1.900e-1, -4.335e-6
-1.890e-1, -4.335e-6
-1.880e-1, -4.363e-6
-1.870e-1, -4.446e-6
-1.860e-1, -4.587e-6
-1.850e-1, -4.713e-6
-1.840e-1, -4.694e-6
-1.830e-1, -4.747e-6
-1.820e-1, -4.882e-6
-1.810e-1, -4.848e-6
-1.800e-1, -4.845e-6
-1.790e-1, -5.094e-6
-1.780e-1, -4.950e-6
-1.770e-1, -5.183e-6
-1.760e-1, -5.152e-6
-1.750e-1, -5.122e-6
-1.740e-1, -5.352e-6
-1.730e-1, -5.306e-6
-1.720e-1, -5.315e-6
-1.710e-1, -5.435e-6
-1.700e-1, -5.496e-6
-1.690e-1, -5.487e-6
-1.680e-1, -5.432e-6
-1.670e-1, -5.622e-6
-1.660e-1, -5.831e-6
-1.650e-1, -5.598e-6
-1.640e-1, -5.721e-6
-1.630e-1, -5.844e-6
-1.620e-1, -5.755e-6
-1.610e-1, -5.856e-6
-1.600e-1, -5.945e-6
-1.590e-1, -5.893e-6
-1.580e-1, -6.053e-6
-1.570e-1, -5.997e-6
-1.560e-1, -6.013e-6
-1.550e-1, -6.120e-6
-1.540e-1, -6.126e-6
-1.530e-1, -6.308e-6
-1.520e-1, -6.111e-6
-1.510e-1, -6.212e-6
-1.500e-1, -6.274e-6
-1.490e-1, -6.308e-6
-1.480e-1, -6.387e-6
-1.470e-1, -6.467e-6
-1.460e-1, -6.418e-6
-1.450e-1, -6.538e-6
-1.440e-1, -6.504e-6
-1.430e-1, -6.424e-6
-1.420e-1, -6.710e-6
-1.410e-1, -6.556e-6
-1.400e-1, -6.606e-6
-1.390e-1, -6.692e-6
-1.380e-1, -6.682e-6
-1.370e-1, -6.836e-6
-1.360e-1, -6.729e-6
-1.350e-1, -6.762e-6
-1.340e-1, -6.941e-6
-1.330e-1, -6.818e-6
-1.320e-1, -6.879e-6
-1.310e-1, -6.925e-6
-1.300e-1, -6.891e-6
-1.290e-1, -7.113e-6
-1.280e-1, -7.027e-6
-1.270e-1, -7.014e-6
-1.260e-1, -7.143e-6
-1.250e-1, -7.134e-6
-1.240e-1, -7.131e-6
-1.230e-1, -7.162e-6
-1.220e-1, -7.226e-6
-1.210e-1, -7.312e-6
-1.200e-1, -7.251e-6
-1.190e-1, -7.294e-6
-1.180e-1, -7.435e-6
-1.170e-1, -7.269e-6
-1.160e-1, -7.383e-6
-1.150e-1, -7.438e-6
-1.140e-1, -7.411e-6
-1.130e-1, -7.481e-6
-1.120e-1, -7.518e-6
-1.110e-1, -7.506e-6
-1.100e-1, -7.669e-6
-1.090e-1, -7.555e-6
-1.080e-1, -7.660e-6
-1.070e-1, -7.690e-6
-1.060e-1, -7.644e-6
-1.050e-1, -7.746e-6
-1.040e-1, -7.703e-6
-1.030e-1, -7.693e-6
-1.020e-1, -7.985e-6
-1.010e-1, -7.626e-6
-1.000e-1, -7.865e-6
-9.900e-2, -7.911e-6
-9.800e-2, -7.878e-6
-9.700e-2, -7.973e-6
-9.600e-2, -7.961e-6
-9.500e-2, -7.961e-6
-9.400e-2, -7.958e-6
-9.300e-2, -8.087e-6
-9.200e-2, -8.041e-6
-9.100e-2, -8.163e-6
-9.000e-2, -8.087e-6
-8.900e-2, -8.222e-6
-8.800e-2, -8.145e-6
-8.700e-2, -8.170e-6
-8.600e-2, -8.329e-6
-8.500e-2, -8.136e-6
-8.400e-2, -8.188e-6
-8.300e-2, -8.369e-6
-8.200e-2, -8.265e-6
-8.100e-2, -8.394e-6
-8.000e-2, -8.388e-6
-7.900e-2, -8.351e-6
-7.800e-2, -8.465e-6
-7.700e-2, -8.458e-6
-7.600e-2, -8.277e-6
-7.500e-2, -8.634e-6
-7.400e-2, -8.547e-6
-7.300e-2, -8.600e-6
-7.200e-2, -8.532e-6
-7.100e-2, -8.600e-6
-7.000e-2, -8.716e-6
-6.900e-2, -8.624e-6
-6.800e-2, -8.673e-6
-6.700e-2, -8.760e-6
-6.600e-2, -8.606e-6
-6.500e-2, -8.849e-6
-6.400e-2, -8.760e-6
-6.300e-2, -8.713e-6
-6.200e-2, -8.895e-6
-6.100e-2, -8.830e-6
-6.000e-2, -8.855e-6
-5.900e-2, -8.938e-6
-5.800e-2, -8.901e-6
-5.700e-2, -9.021e-6
-5.600e-2, -8.855e-6
-5.500e-2, -9.030e-6
-5.400e-2, -9.147e-6
-5.300e-2, -8.965e-6
-5.200e-2, -9.067e-6
-5.100e-2, -9.168e-6
-5.000e-2, -9.018e-6
-4.900e-2, -9.242e-6
-4.800e-2, -9.205e-6
-4.700e-2, -9.116e-6
-4.600e-2, -9.254e-6
-4.500e-2, -9.236e-6
-4.400e-2, -9.291e-6
-4.300e-2, -9.291e-6
-4.200e-2, -9.334e-6
-4.100e-2, -9.365e-6
-4.000e-2, -9.349e-6
-3.900e-2, -9.396e-6
-3.800e-2, -9.423e-6
-3.700e-2, -9.374e-6
-3.600e-2, -9.460e-6
-3.500e-2, -9.518e-6
-3.400e-2, -9.500e-6
-3.300e-2, -9.568e-6
-3.200e-2, -9.577e-6
-3.100e-2, -9.558e-6
-3.000e-2, -9.647e-6
-2.900e-2, -9.638e-6
-2.800e-2, -9.632e-6
-2.700e-2, -9.687e-6
-2.600e-2, -9.638e-6
-2.500e-2, -9.816e-6
-2.400e-2, -9.672e-6
-2.300e-2, -9.727e-6
-2.200e-2, -9.903e-6
-2.100e-2, -9.746e-6
-2.000e-2, -9.816e-6
-1.900e-2, -9.884e-6
-1.800e-2, -9.906e-6
-1.700e-2, -1.000e-5
-1.600e-2, -9.949e-6
-1.500e-2, -9.903e-6
-1.400e-2, -1.003e-5
-1.300e-2, -1.000e-5
-1.200e-2, -1.001e-5
-1.100e-2, -1.011e-5
-1.000e-2, -1.007e-5
-9.000e-3, -1.020e-5
-8.000e-3, -1.000e-5
-7.000e-3, -1.014e-5
-6.000e-3, -1.028e-5
-5.000e-3, -1.013e-5
-4.000e-3, -1.024e-5
-3.000e-3, -1.029e-5
-2.000e-3, -1.011e-5
-9.998e-4, -1.042e-5
2.270e-7, -1.033e-5
1.000e-3, -1.043e-5
2.000e-3, -1.048e-5
3.000e-3, -1.038e-5
4.000e-3, -1.040e-5
5.000e-3, -1.052e-5
6.000e-3, -1.045e-5
7.000e-3, -1.056e-5
8.000e-3, -1.055e-5
9.000e-3, -1.050e-5
1.000e-2, -1.065e-5
1.100e-2, -1.049e-5
1.200e-2, -1.061e-5
1.300e-2, -1.069e-5
1.400e-2, -1.061e-5
1.500e-2, -1.075e-5
1.600e-2, -1.073e-5
1.700e-2, -1.073e-5
1.800e-2, -1.067e-5
1.900e-2, -1.085e-5
2.000e-2, -1.082e-5
2.100e-2, -1.091e-5
2.200e-2, -1.089e-5
2.300e-2, -1.091e-5
2.400e-2, -1.091e-5
2.500e-2, -1.096e-5
2.600e-2, -1.112e-5
2.700e-2, -1.088e-5
2.800e-2, -1.103e-5
2.900e-2, -1.115e-5
3.000e-2, -1.101e-5
3.100e-2, -1.111e-5
3.200e-2, -1.122e-5
3.300e-2, -1.109e-5
3.400e-2, -1.127e-5
3.500e-2, -1.126e-5
3.600e-2, -1.110e-5
3.700e-2, -1.137e-5
3.800e-2, -1.133e-5
3.900e-2, -1.142e-5
4.000e-2, -1.134e-5
4.100e-2, -1.138e-5
4.200e-2, -1.153e-5
4.300e-2, -1.142e-5
4.400e-2, -1.145e-5
4.500e-2, -1.157e-5
4.600e-2, -1.154e-5
4.700e-2, -1.165e-5
4.800e-2, -1.162e-5
4.900e-2, -1.162e-5
5.000e-2, -1.169e-5
5.100e-2, -1.169e-5
5.200e-2, -1.177e-5
5.300e-2, -1.182e-5
5.400e-2, -1.179e-5
5.500e-2, -1.183e-5
5.600e-2, -1.189e-5
5.700e-2, -1.191e-5
5.800e-2, -1.204e-5
5.900e-2, -1.192e-5
6.000e-2, -1.201e-5
6.100e-2, -1.214e-5
6.200e-2, -1.205e-5
6.300e-2, -1.216e-5
6.400e-2, -1.219e-5
6.500e-2, -1.213e-5
6.600e-2, -1.239e-5
6.700e-2, -1.225e-5
6.800e-2, -1.229e-5
6.900e-2, -1.237e-5
7.000e-2, -1.243e-5
7.100e-2, -1.252e-5
7.200e-2, -1.237e-5
7.300e-2, -1.257e-5
7.400e-2, -1.270e-5
7.500e-2, -1.259e-5
7.600e-2, -1.265e-5
7.700e-2, -1.278e-5
7.800e-2, -1.268e-5
7.900e-2, -1.286e-5
8.000e-2, -1.282e-5
8.100e-2, -1.284e-5
8.200e-2, -1.307e-5
8.300e-2, -1.298e-5
8.400e-2, -1.304e-5
8.500e-2, -1.319e-5
8.600e-2, -1.318e-5
8.700e-2, -1.324e-5
8.800e-2, -1.323e-5
8.900e-2, -1.329e-5
9.000e-2, -1.352e-5
9.100e-2, -1.335e-5
9.200e-2, -1.331e-5
9.300e-2, -1.369e-5
9.400e-2, -1.360e-5
9.500e-2, -1.372e-5
9.600e-2, -1.374e-5
9.700e-2, -1.375e-5
9.800e-2, -1.403e-5
9.900e-2, -1.387e-5
1.000e-1, -1.400e-5
1.010e-1, -1.414e-5
1.020e-1, -1.415e-5
1.030e-1, -1.439e-5
1.040e-1, -1.421e-5
1.050e-1, -1.435e-5
1.060e-1, -1.457e-5
1.070e-1, -1.445e-5
1.080e-1, -1.457e-5
1.090e-1, -1.475e-5
1.100e-1, -1.465e-5
1.110e-1, -1.500e-5
1.120e-1, -1.499e-5
1.130e-1, -1.496e-5
1.140e-1, -1.526e-5
1.150e-1, -1.518e-5
1.160e-1, -1.529e-5
1.170e-1, -1.549e-5
1.180e-1, -1.550e-5
1.190e-1, -1.569e-5
1.200e-1, -1.570e-5
1.210e-1, -1.582e-5
1.220e-1, -1.607e-5
1.230e-1, -1.601e-5
1.240e-1, -1.619e-5
1.250e-1, -1.633e-5
1.260e-1, -1.638e-5
1.270e-1, -1.650e-5
1.280e-1, -1.666e-5
1.290e-1, -1.656e-5
1.300e-1, -1.708e-5
1.310e-1, -1.704e-5
1.320e-1, -1.714e-5
1.330e-1, -1.736e-5
1.340e-1, -1.745e-5
1.350e-1, -1.766e-5
1.360e-1, -1.773e-5
1.370e-1, -1.783e-5
1.380e-1, -1.821e-5
1.390e-1, -1.818e-5
1.400e-1, -1.833e-5
1.410e-1, -1.858e-5
1.420e-1, -1.867e-5
1.430e-1, -1.895e-5
1.440e-1, -1.911e-5
1.450e-1, -1.919e-5
1.460e-1, -1.936e-5
1.470e-1, -1.965e-5
1.480e-1, -1.985e-5
1.490e-1, -2.008e-5
1.500e-1, -2.020e-5
1.510e-1, -2.048e-5
1.520e-1, -2.062e-5
1.530e-1, -2.084e-5
1.540e-1, -2.124e-5
1.550e-1, -2.117e-5
1.560e-1, -2.151e-5
1.570e-1, -2.184e-5
1.580e-1, -2.199e-5
1.590e-1, -2.232e-5
1.600e-1, -2.255e-5
1.610e-1, -2.274e-5
1.620e-1, -2.320e-5
1.630e-1, -2.331e-5
1.640e-1, -2.352e-5
1.650e-1, -2.393e-5
1.660e-1, -2.395e-5
1.670e-1, -2.467e-5
1.680e-1, -2.466e-5
1.690e-1, -2.504e-5
1.700e-1, -2.550e-5
1.710e-1, -2.561e-5
1.720e-1, -2.596e-5
1.730e-1, -2.637e-5
1.740e-1, -2.662e-5
1.750e-1, -2.706e-5
1.760e-1, -2.733e-5
1.770e-1, -2.762e-5
1.780e-1, -2.814e-5
1.790e-1, -2.839e-5
1.800e-1, -2.875e-5
1.810e-1, -2.916e-5
1.820e-1, -2.951e-5
1.830e-1, -2.999e-5
1.840e-1, -3.002e-5
1.850e-1, -3.069e-5
1.860e-1, -3.120e-5
1.870e-1, -3.142e-5
1.880e-1, -3.188e-5
1.890e-1, -3.229e-5
1.900e-1, -3.261e-5
1.910e-1, -3.319e-5
1.920e-1, -3.349e-5
1.930e-1, -3.384e-5
1.940e-1, -3.439e-5
1.950e-1, -3.478e-5
1.960e-1, -3.518e-5
1.970e-1, -3.564e-5
1.980e-1, -3.603e-5
1.990e-1, -3.658e-5
2.000e-1, -3.693e-5
2.010e-1, -3.736e-5
2.020e-1, -3.790e-5
2.030e-1, -3.799e-5
2.040e-1, -3.859e-5
2.050e-1, -3.918e-5
2.060e-1, -3.954e-5
2.070e-1, -4.004e-5
2.080e-1, -4.036e-5
2.090e-1, -4.073e-5
2.100e-1, -4.129e-5
2.110e-1, -4.156e-5
2.120e-1, -4.200e-5
2.130e-1, -4.248e-5
2.140e-1, -4.281e-5
2.150e-1, -4.329e-5
2.160e-1, -4.353e-5
2.170e-1, -4.396e-5
2.180e-1, -4.447e-5
2.190e-1, -4.464e-5
2.200e-1, -4.505e-5
2.210e-1, -4.540e-5
2.220e-1, -4.570e-5
2.230e-1, -4.611e-5
2.240e-1, -4.643e-5
2.250e-1, -4.666e-5
2.260e-1, -4.709e-5
2.270e-1, -4.732e-5
2.280e-1, -4.753e-5
2.290e-1, -4.788e-5
2.300e-1, -4.799e-5
2.310e-1, -4.852e-5
2.320e-1, -4.849e-5
2.330e-1, -4.876e-5
2.340e-1, -4.910e-5
2.350e-1, -4.920e-5
2.360e-1, -4.939e-5
2.370e-1, -4.964e-5
2.380e-1, -4.982e-5
2.390e-1, -5.001e-5
2.400e-1, -4.988e-5
2.410e-1, -5.016e-5
2.420e-1, -5.048e-5
2.430e-1, -5.041e-5
2.440e-1, -5.053e-5
2.450e-1, -5.065e-5
2.460e-1, -5.069e-5
2.470e-1, -5.082e-5
2.480e-1, -5.072e-5
2.490e-1, -5.076e-5
2.500e-1, -5.100e-5
2.510e-1, -5.088e-5
2.520e-1, -5.092e-5
2.530e-1, -5.096e-5
2.540e-1, -5.088e-5
2.550e-1, -5.099e-5
2.560e-1, -5.096e-5
2.570e-1, -5.083e-5
2.580e-1, -5.080e-5
2.590e-1, -5.083e-5
2.600e-1, -5.081e-5
2.610e-1, -5.068e-5
2.620e-1, -5.062e-5
2.630e-1, -5.068e-5
2.640e-1, -5.043e-5
2.650e-1, -5.037e-5
2.660e-1, -5.037e-5
2.670e-1, -5.018e-5
2.680e-1, -5.010e-5
2.690e-1, -5.001e-5
2.700e-1, -4.982e-5
2.710e-1, -4.984e-5
2.720e-1, -4.968e-5
2.730e-1, -4.944e-5
2.740e-1, -4.955e-5
2.750e-1, -4.927e-5
2.760e-1, -4.919e-5
2.770e-1, -4.893e-5
2.780e-1, -4.895e-5
2.790e-1, -4.889e-5
2.800e-1, -4.856e-5
2.810e-1, -4.841e-5
2.820e-1, -4.851e-5
2.830e-1, -4.802e-5
2.840e-1, -4.809e-5
2.850e-1, -4.797e-5
2.860e-1, -4.774e-5
2.870e-1, -4.767e-5
2.880e-1, -4.750e-5
2.890e-1, -4.722e-5
2.900e-1, -4.734e-5
2.910e-1, -4.697e-5
2.920e-1, -4.693e-5
2.930e-1, -4.676e-5
2.940e-1, -4.658e-5
2.950e-1, -4.647e-5
2.960e-1, -4.637e-5
2.970e-1, -4.615e-5
2.980e-1, -4.622e-5
2.990e-1, -4.575e-5
3.000e-1, -4.572e-5
3.010e-1, -4.564e-5
3.020e-1, -4.548e-5
3.030e-1, -4.537e-5
3.040e-1, -4.517e-5
3.050e-1, -4.500e-5
3.060e-1, -4.503e-5
3.070e-1, -4.475e-5
3.080e-1, -4.472e-5
3.090e-1, -4.451e-5
3.100e-1, -4.442e-5
3.110e-1, -4.436e-5
3.120e-1, -4.408e-5
3.130e-1, -4.396e-5
3.140e-1, -4.393e-5
3.150e-1, -4.378e-5
3.160e-1, -4.375e-5
3.170e-1, -4.361e-5
3.180e-1, -4.327e-5
3.190e-1, -4.340e-5
3.200e-1, -4.315e-5
3.210e-1, -4.305e-5
3.220e-1, -4.304e-5
3.230e-1, -4.282e-5
3.240e-1, -4.271e-5
3.250e-1, -4.264e-5
3.260e-1, -4.251e-5
3.270e-1, -4.245e-5
3.280e-1, -4.227e-5
3.290e-1, -4.214e-5
3.300e-1, -4.229e-5
3.310e-1, -4.192e-5
3.320e-1, -4.176e-5
3.330e-1, -4.197e-5
3.340e-1, -4.170e-5
3.350e-1, -4.171e-5
3.360e-1, -4.157e-5
3.370e-1, -4.139e-5
3.380e-1, -4.137e-5
3.390e-1, -4.127e-5
3.400e-1, -4.119e-5
3.410e-1, -4.109e-5
3.420e-1, -4.105e-5
3.430e-1, -4.098e-5
3.440e-1, -4.076e-5
3.450e-1, -4.074e-5
3.460e-1, -4.074e-5
3.470e-1, -4.051e-5
3.480e-1, -4.046e-5
3.490e-1, -4.050e-5
3.500e-1, -4.029e-5
3.510e-1, -4.021e-5
3.520e-1, -4.028e-5
3.530e-1, -4.018e-5
3.540e-1, -4.018e-5
3.550e-1, -4.001e-5
3.560e-1, -3.991e-5
3.570e-1, -3.988e-5
3.580e-1, -3.967e-5
3.590e-1, -3.993e-5
3.600e-1, -3.951e-5
3.610e-1, -3.953e-5
3.620e-1, -3.969e-5
3.630e-1, -3.938e-5
3.640e-1, -3.939e-5
3.650e-1, -3.940e-5
3.660e-1, -3.929e-5
3.670e-1, -3.925e-5
3.680e-1, -3.920e-5
3.690e-1, -3.885e-5
3.700e-1, -3.925e-5
3.710e-1, -3.901e-5
3.720e-1, -3.894e-5
3.730e-1, -3.892e-5
3.740e-1, -3.881e-5
3.750e-1, -3.887e-5
3.760e-1, -3.860e-5
3.770e-1, -3.872e-5
3.780e-1, -3.871e-5
3.790e-1, -3.850e-5
3.800e-1, -3.853e-5
3.810e-1, -3.850e-5
3.820e-1, -3.838e-5
3.830e-1, -3.846e-5
3.840e-1, -3.830e-5
3.850e-1, -3.815e-5
3.860e-1, -3.835e-5
3.870e-1, -3.820e-5
3.880e-1, -3.803e-5
3.890e-1, -3.818e-5
3.900e-1, -3.809e-5
3.910e-1, -3.816e-5
3.920e-1, -3.794e-5
3.930e-1, -3.792e-5
3.940e-1, -3.803e-5
3.950e-1, -3.772e-5
3.960e-1, -3.784e-5
3.970e-1, -3.784e-5
3.980e-1, -3.769e-5
3.990e-1, -3.773e-5
4.000e-1, -3.763e-5
4.010e-1, -3.762e-5
4.020e-1, -3.770e-5
4.030e-1, -3.749e-5
4.040e-1, -3.757e-5
4.050e-1, -3.750e-5
4.060e-1, -3.737e-5
4.070e-1, -3.753e-5
4.080e-1, -3.744e-5
4.090e-1, -3.735e-5
4.100e-1, -3.750e-5
4.110e-1, -3.735e-5
4.120e-1, -3.728e-5
4.130e-1, -3.731e-5
4.140e-1, -3.716e-5
4.150e-1, -3.717e-5
4.160e-1, -3.721e-5
4.170e-1, -3.708e-5
4.180e-1, -3.724e-5
4.190e-1, -3.707e-5
4.200e-1, -3.700e-5
4.210e-1, -3.706e-5
4.220e-1, -3.700e-5
4.230e-1, -3.705e-5
4.240e-1, -3.689e-5
4.250e-1, -3.675e-5
4.260e-1, -3.711e-5
4.270e-1, -3.683e-5
4.280e-1, -3.690e-5
4.290e-1, -3.686e-5
4.300e-1, -3.684e-5
4.310e-1, -3.684e-5
4.320e-1, -3.679e-5
4.330e-1, -3.667e-5
4.340e-1, -3.681e-5
4.350e-1, -3.663e-5
4.360e-1, -3.672e-5
4.370e-1, -3.666e-5
4.380e-1, -3.664e-5
4.390e-1, -3.670e-5
4.400e-1, -3.657e-5
4.410e-1, -3.659e-5
4.420e-1, -3.667e-5
4.430e-1, -3.631e-5
4.440e-1, -3.664e-5
4.450e-1, -3.659e-5
4.460e-1, -3.654e-5
4.470e-1, -3.648e-5
4.480e-1, -3.652e-5
4.490e-1, -3.641e-5
4.500e-1, -3.661e-5
4.510e-1, -3.641e-5
4.520e-1, -3.638e-5
4.530e-1, -3.635e-5
4.540e-1, -3.641e-5
4.550e-1, -3.648e-5
4.560e-1, -3.634e-5
4.570e-1, -3.631e-5
4.580e-1, -3.647e-5
4.590e-1, -3.627e-5
4.600e-1, -3.630e-5
4.610e-1, -3.636e-5
4.620e-1, -3.622e-5
4.630e-1, -3.635e-5
4.640e-1, -3.636e-5
4.650e-1, -3.617e-5
4.660e-1, -3.638e-5
4.670e-1, -3.623e-5
4.680e-1, -3.623e-5
4.690e-1, -3.631e-5
4.700e-1, -3.620e-5
4.710e-1, -3.631e-5
4.720e-1, -3.614e-5
4.730e-1, -3.616e-5
4.740e-1, -3.629e-5
4.750e-1, -3.612e-5
4.760e-1, -3.618e-5
4.770e-1, -3.620e-5
4.780e-1, -3.612e-5
4.790e-1, -3.623e-5
4.800e-1, -3.611e-5
4.810e-1, -3.609e-5
4.820e-1, -3.630e-5
4.830e-1, -3.607e-5
4.840e-1, -3.615e-5
4.850e-1, -3.619e-5
4.860e-1, -3.608e-5
4.870e-1, -3.625e-5
4.880e-1, -3.605e-5
4.890e-1, -3.611e-5
4.900e-1, -3.623e-5
4.910e-1, -3.595e-5
4.920e-1, -3.611e-5
4.930e-1, -3.619e-5
4.940e-1, -3.604e-5
4.950e-1, -3.621e-5
4.960e-1, -3.611e-5
4.970e-1, -3.603e-5
4.980e-1, -3.620e-5
4.990e-1, -3.596e-5
5.000e-1, -3.608e-5
4.000e-3, -2.556e-5
8.000e-3, -2.377e-5
1.200e-2, -2.239e-5
1.600e-2, -2.125e-5
2.000e-2, -2.027e-5
2.400e-2, -1.942e-5
2.800e-2, -1.866e-5
3.200e-2, -1.799e-5
3.600e-2, -1.738e-5
4.000e-2, -1.681e-5
4.400e-2, -1.630e-5
4.800e-2, -1.583e-5
5.200e-2, -1.539e-5
5.600e-2, -1.499e-5
6.000e-2, -1.462e-5
6.400e-2, -1.426e-5
6.800e-2, -1.393e-5
7.200e-2, -1.362e-5
7.600e-2, -1.332e-5
8.000e-2, -1.305e-5
8.400e-2, -1.279e-5
8.800e-2, -1.253e-5
9.200e-2, -1.230e-5
9.600e-2, -1.207e-5
1.000e-1, -1.186e-5
1.040e-1, -1.165e-5
1.080e-1, -1.146e-5
1.120e-1, -1.126e-5
1.160e-1, -1.109e-5
1.200e-1, -1.091e-5
1.240e-1, -1.074e-5
1.280e-1, -1.059e-5
1.320e-1, -1.043e-5
1.360e-1, -1.028e-5
1.400e-1, -1.014e-5
1.440e-1, -9.999e-6
1.480e-1, -9.861e-6
1.520e-1, -9.737e-6
1.560e-1, -9.611e-6
1.600e-1, -9.489e-6
1.640e-1, -9.371e-6
1.680e-1, -9.256e-6
1.720e-1, -9.141e-6
1.760e-1, -9.037e-6
1.800e-1, -8.932e-6
1.840e-1, -8.830e-6
1.880e-1, -8.730e-6
1.920e-1, -8.634e-6
1.960e-1, -8.539e-6
2.000e-1, -8.448e-6
2.040e-1, -8.358e-6
2.080e-1, -8.272e-6
2.120e-1, -8.190e-6
2.160e-1, -8.102e-6
2.200e-1, -8.024e-6
2.240e-1, -7.945e-6
2.280e-1, -7.864e-6
2.320e-1, -7.793e-6
2.360e-1, -7.722e-6
2.400e-1, -7.646e-6
2.440e-1, -7.574e-6
2.480e-1, -7.508e-6
2.520e-1, -7.438e-6
2.560e-1, -7.371e-6
2.600e-1, -7.311e-6
2.640e-1, -7.243e-6
2.680e-1, -7.182e-6
2.720e-1, -7.124e-6
2.760e-1, -7.057e-6
2.800e-1, -7.001e-6
2.840e-1, -6.943e-6
2.880e-1, -6.885e-6
2.920e-1, -6.832e-6
2.960e-1, -6.776e-6
3.000e-1, -6.722e-6
3.040e-1, -6.672e-6
3.080e-1, -6.618e-6
3.120e-1, -6.571e-6
3.160e-1, -6.521e-6
3.200e-1, -6.472e-6
3.240e-1, -6.425e-6
3.280e-1, -6.377e-6
3.320e-1, -6.329e-6
3.360e-1, -6.285e-6
3.400e-1, -6.239e-6
3.440e-1, -6.196e-6
3.480e-1, -6.148e-6
3.520e-1, -6.108e-6
3.560e-1, -6.067e-6
3.600e-1, -6.024e-6
3.640e-1, -5.983e-6
3.680e-1, -5.942e-6
3.720e-1, -5.899e-6
3.760e-1, -5.867e-6
3.800e-1, -5.826e-6
3.840e-1, -5.787e-6
3.880e-1, -5.750e-6
3.920e-1, -5.716e-6
3.960e-1, -5.681e-6
4.000e-1, -5.641e-6
4.040e-1, -5.611e-6
4.080e-1, -5.572e-6
4.120e-1, -5.540e-6
4.160e-1, -5.505e-6
4.200e-1, -5.472e-6
4.240e-1, -5.442e-6
4.280e-1, -5.410e-6
4.320e-1, -5.375e-6
4.360e-1, -5.346e-6
4.400e-1, -5.313e-6
4.440e-1, -5.285e-6
4.480e-1, -5.255e-6
4.520e-1, -5.221e-6
4.560e-1, -5.193e-6
4.600e-1, -5.164e-6
4.640e-1, -5.138e-6
4.680e-1, -5.108e-6
4.720e-1, -5.082e-6
4.760e-1, -5.052e-6
4.800e-1, -5.023e-6
4.840e-1, -5.003e-6
4.880e-1, -4.969e-6
4.920e-1, -4.947e-6
4.960e-1, -4.926e-6
5.000e-1, -4.894e-6
5.040e-1, -4.873e-6
5.080e-1, -4.849e-6
5.120e-1, -4.819e-6
5.160e-1, -4.798e-6
5.200e-1, -4.775e-6
5.240e-1, -4.749e-6
5.280e-1, -4.724e-6
5.320e-1, -4.706e-6
5.360e-1, -4.678e-6
5.400e-1, -4.654e-6
5.440e-1, -4.633e-6
5.480e-1, -4.611e-6
5.520e-1, -4.589e-6
5.560e-1, -4.566e-6
5.600e-1, -4.543e-6
5.640e-1, -4.526e-6
5.680e-1, -4.501e-6
5.720e-1, -4.479e-6
5.760e-1, -4.461e-6
5.800e-1, -4.439e-6
5.840e-1, -4.422e-6
5.880e-1, -4.399e-6
5.920e-1, -4.380e-6
5.960e-1, -4.362e-6
6.000e-1, -4.340e-6
6.040e-1, -4.323e-6
6.080e-1, -4.301e-6
6.120e-1, -4.285e-6
6.160e-1, -4.266e-6
6.200e-1, -4.244e-6
6.240e-1, -4.228e-6
6.280e-1, -4.210e-6
6.320e-1, -4.186e-6
6.360e-1, -4.175e-6
6.400e-1, -4.157e-6
6.440e-1, -4.136e-6
6.480e-1, -4.123e-6
6.520e-1, -4.107e-6
6.560e-1, -4.086e-6
6.600e-1, -4.070e-6
6.640e-1, -4.054e-6
6.680e-1, -4.034e-6
6.720e-1, -4.023e-6
6.760e-1, -4.008e-6
6.800e-1, -3.990e-6
6.840e-1, -3.975e-6
6.880e-1, -3.960e-6
6.920e-1, -3.938e-6
6.960e-1, -3.928e-6
7.000e-1, -3.912e-6
7.040e-1, -3.897e-6
7.080e-1, -3.883e-6
7.120e-1, -3.867e-6
7.160e-1, -3.855e-6
7.200e-1, -3.838e-6
7.240e-1, -3.824e-6
7.280e-1, -3.808e-6
7.320e-1, -3.795e-6
7.360e-1, -3.783e-6
7.400e-1, -3.765e-6
7.440e-1, -3.754e-6
7.480e-1, -3.736e-6
7.520e-1, -3.725e-6
7.560e-1, -3.715e-6
7.600e-1, -3.697e-6
7.640e-1, -3.682e-6
7.680e-1, -3.673e-6
7.720e-1, -3.654e-6
7.760e-1, -3.646e-6
7.800e-1, -3.634e-6
7.840e-1, -3.619e-6
7.880e-1, -3.602e-6
7.920e-1, -3.591e-6
7.960e-1, -3.583e-6
8.000e-1, -3.565e-6
8.040e-1, -3.554e-6
8.080e-1, -3.541e-6
8.120e-1, -3.526e-6
8.160e-1, -3.522e-6
8.200e-1, -3.504e-6
8.240e-1, -3.494e-6
8.280e-1, -3.481e-6
8.320e-1, -3.468e-6
8.360e-1, -3.457e-6
8.400e-1, -3.448e-6
8.440e-1, -3.433e-6
8.480e-1, -3.422e-6
8.520e-1, -3.408e-6
8.560e-1, -3.400e-6
8.600e-1, -3.388e-6
8.640e-1, -3.376e-6
8.680e-1, -3.363e-6
8.720e-1, -3.350e-6
8.760e-1, -3.346e-6
8.800e-1, -3.331e-6
8.840e-1, -3.322e-6
8.880e-1, -3.313e-6
8.920e-1, -3.296e-6
8.960e-1, -3.291e-6
9.000e-1, -3.276e-6
9.040e-1, -3.268e-6
9.080e-1, -3.259e-6
9.120e-1, -3.245e-6
9.160e-1, -3.232e-6
9.200e-1, -3.226e-6
9.240e-1, -3.214e-6
9.280e-1, -3.205e-6
9.320e-1, -3.196e-6
9.360e-1, -3.185e-6
9.400e-1, -3.172e-6
9.440e-1, -3.166e-6
9.480e-1, -3.157e-6
9.520e-1, -3.142e-6
9.560e-1, -3.135e-6
9.600e-1, -3.126e-6
9.640e-1, -3.116e-6
9.680e-1, -3.109e-6
9.720e-1, -3.099e-6
9.760e-1, -3.090e-6
9.800e-1, -3.079e-6
9.840e-1, -3.068e-6
9.880e-1, -3.062e-6
9.920e-1, -3.052e-6
9.960e-1, -3.043e-6
1.000e+0, -3.033e-6
1.004e+0, -3.025e-6
1.008e+0, -3.015e-6
1.012e+0, -3.006e-6
1.016e+0, -3.001e-6
1.020e+0, -2.990e-6
1.024e+0, -2.980e-6
1.028e+0, -2.974e-6
1.032e+0, -2.962e-6
1.036e+0, -2.953e-6
1.040e+0, -2.947e-6
1.044e+0, -2.936e-6
1.048e+0, -2.930e-6
1.052e+0, -2.922e-6
1.056e+0, -2.911e-6
1.060e+0, -2.903e-6
1.064e+0, -2.898e-6
1.068e+0, -2.890e-6
1.072e+0, -2.875e-6
1.076e+0, -2.875e-6
1.080e+0, -2.862e-6
1.084e+0, -2.854e-6
1.088e+0, -2.851e-6
1.092e+0, -2.838e-6
1.096e+0, -2.832e-6
1.100e+0, -2.826e-6
1.104e+0, -2.815e-6
1.108e+0, -2.807e-6
1.112e+0, -2.798e-6
1.116e+0, -2.793e-6
1.120e+0, -2.783e-6
1.124e+0, -2.776e-6
1.128e+0, -2.767e-6
1.132e+0, -2.761e-6
1.136e+0, -2.756e-6
1.140e+0, -2.746e-6
1.144e+0, -2.740e-6
1.148e+0, -2.730e-6
1.152e+0, -2.724e-6
1.156e+0, -2.717e-6
1.160e+0, -2.709e-6
1.164e+0, -2.702e-6
1.168e+0, -2.695e-6
1.172e+0, -2.689e-6
1.176e+0, -2.680e-6
1.180e+0, -2.677e-6
1.184e+0, -2.667e-6
1.188e+0, -2.661e-6
1.192e+0, -2.653e-6
1.196e+0, -2.646e-6
1.200e+0, -2.637e-6
1.204e+0, -2.633e-6
1.208e+0, -2.626e-6
1.212e+0, -2.619e-6
1.216e+0, -2.612e-6
1.220e+0, -2.608e-6
1.224e+0, -2.597e-6
1.228e+0, -2.595e-6
1.232e+0, -2.587e-6
1.236e+0, -2.575e-6
1.240e+0, -2.575e-6
1.244e+0, -2.566e-6
1.248e+0, -2.561e-6
1.252e+0, -2.555e-6
1.256e+0, -2.547e-6
1.260e+0, -2.537e-6
1.264e+0, -2.534e-6
1.268e+0, -2.532e-6
1.272e+0, -2.525e-6
1.276e+0, -2.518e-6
1.280e+0, -2.513e-6
1.284e+0, -2.503e-6
1.288e+0, -2.501e-6
1.292e+0, -2.493e-6
1.296e+0, -2.485e-6
1.300e+0, -2.483e-6
1.304e+0, -2.476e-6
1.308e+0, -2.468e-6
1.312e+0, -2.464e-6
1.316e+0, -2.456e-6
1.320e+0, -2.449e-6
1.324e+0, -2.446e-6
1.328e+0, -2.438e-6
1.332e+0, -2.432e-6
1.336e+0, -2.428e-6
1.340e+0, -2.420e-6
1.344e+0, -2.417e-6
1.348e+0, -2.417e-6
1.352e+0, -2.403e-6
1.356e+0, -2.398e-6
1.360e+0, -2.394e-6
1.364e+0, -2.388e-6
1.368e+0, -2.383e-6
1.372e+0, -2.381e-6
1.376e+0, -2.373e-6
1.380e+0, -2.365e-6
1.384e+0, -2.363e-6
1.388e+0, -2.356e-6
1.392e+0, -2.350e-6
1.396e+0, -2.343e-6
1.400e+0, -2.337e-6
1.404e+0, -2.335e-6
1.408e+0, -2.333e-6
1.412e+0, -2.323e-6
1.416e+0, -2.318e-6
1.420e+0, -2.312e-6
1.424e+0, -2.308e-6
1.428e+0, -2.301e-6
1.432e+0, -2.298e-6
1.436e+0, -2.293e-6
1.440e+0, -2.290e-6
1.444e+0, -2.282e-6
1.448e+0, -2.278e-6
1.452e+0, -2.274e-6
1.456e+0, -2.267e-6
1.460e+0, -2.261e-6
1.464e+0, -2.261e-6
1.468e+0, -2.253e-6
1.472e+0, -2.249e-6
1.476e+0, -2.243e-6
1.480e+0, -2.237e-6
1.484e+0, -2.230e-6
1.488e+0, -2.227e-6
1.492e+0, -2.225e-6
1.496e+0, -2.215e-6
1.500e+0, -2.214e-6
1.504e+0, -2.211e-6
1.508e+0, -2.199e-6
1.512e+0, -2.201e-6
1.516e+0, -2.199e-6
1.520e+0, -2.188e-6
1.524e+0, -2.185e-6
1.528e+0, -2.180e-6
1.532e+0, -2.179e-6
1.536e+0, -2.173e-6
1.540e+0, -2.169e-6
1.544e+0, -2.161e-6
1.548e+0, -2.159e-6
1.552e+0, -2.157e-6
1.556e+0, -2.151e-6
1.560e+0, -2.147e-6
1.564e+0, -2.142e-6
1.568e+0, -2.136e-6
1.572e+0, -2.134e-6
1.576e+0, -2.129e-6
1.580e+0, -2.126e-6
1.584e+0, -2.121e-6
1.588e+0, -2.115e-6
1.592e+0, -2.112e-6
1.596e+0, -2.108e-6
1.600e+0, -2.104e-6
1.604e+0, -2.099e-6
1.608e+0, -2.094e-6
1.612e+0, -2.091e-6
1.616e+0, -2.086e-6
1.620e+0, -2.082e-6
1.624e+0, -2.078e-6
1.628e+0, -2.071e-6
1.632e+0, -2.073e-6
1.636e+0, -2.065e-6
1.640e+0, -2.060e-6
1.644e+0, -2.061e-6
1.648e+0, -2.052e-6
1.652e+0, -2.047e-6
1.656e+0, -2.049e-6
1.660e+0, -2.038e-6
1.664e+0, -2.038e-6
1.668e+0, -2.036e-6
1.672e+0, -2.030e-6
1.676e+0, -2.026e-6
1.680e+0, -2.020e-6
1.684e+0, -2.019e-6
1.688e+0, -2.015e-6
1.692e+0, -2.009e-6
1.696e+0, -2.008e-6
1.700e+0, -2.004e-6
1.704e+0, -2.000e-6
1.708e+0, -1.993e-6
1.712e+0, -1.994e-6
1.716e+0, -1.988e-6
1.720e+0, -1.983e-6
1.724e+0, -1.985e-6
1.728e+0, -1.976e-6
1.732e+0, -1.974e-6
1.736e+0, -1.971e-6
1.740e+0, -1.966e-6
1.744e+0, -1.961e-6
1.748e+0, -1.959e-6
1.752e+0, -1.957e-6
1.756e+0, -1.950e-6
1.760e+0, -1.948e-6
1.764e+0, -1.947e-6
1.768e+0, -1.939e-6
1.772e+0, -1.938e-6
1.776e+0, -1.933e-6
1.780e+0, -1.926e-6
1.784e+0, -1.929e-6
1.788e+0, -1.923e-6
1.792e+0, -1.921e-6
1.796e+0, -1.919e-6
1.800e+0, -1.912e-6
1.804e+0, -1.908e-6
1.808e+0, -1.906e-6
1.812e+0, -1.905e-6
1.816e+0, -1.900e-6
1.820e+0, -1.895e-6
1.824e+0, -1.896e-6
1.828e+0, -1.889e-6
1.832e+0, -1.884e-6
1.836e+0, -1.884e-6
1.840e+0, -1.879e-6
1.844e+0, -1.881e-6
1.848e+0, -1.873e-6
1.852e+0, -1.870e-6
1.856e+0, -1.869e-6
1.860e+0, -1.861e-6
1.864e+0, -1.862e-6
1.868e+0, -1.861e-6
1.872e+0, -1.854e-6
1.876e+0, -1.851e-6
1.880e+0, -1.849e-6
1.884e+0, -1.845e-6
1.888e+0, -1.841e-6
1.892e+0, -1.842e-6
1.896e+0, -1.838e-6
1.900e+0, -1.831e-6
1.904e+0, -1.832e-6
1.908e+0, -1.826e-6
1.912e+0, -1.821e-6
1.916e+0, -1.827e-6
1.920e+0, -1.816e-6
1.924e+0, -1.813e-6
1.928e+0, -1.813e-6
1.932e+0, -1.807e-6
1.936e+0, -1.809e-6
1.940e+0, -1.802e-6
1.944e+0, -1.800e-6
1.948e+0, -1.795e-6
1.952e+0, -1.791e-6
1.956e+0, -1.792e-6
1.960e+0, -1.786e-6
1.964e+0, -1.782e-6
1.968e+0, -1.781e-6
1.972e+0, -1.773e-6
1.976e+0, -1.777e-6
1.980e+0, -1.772e-6
1.984e+0, -1.771e-6
1.988e+0, -1.768e-6
1.992e+0, -1.762e-6
1.996e+0, -1.763e-6
2.000e+0, -1.757e-6
4.990e-1, -1.170e-6
4.980e-1, -1.060e-6
4.970e-1, -9.951e-7
4.960e-1, -9.091e-7
4.950e-1, -8.814e-7
4.940e-1, -8.231e-7
4.930e-1, -7.739e-7
4.920e-1, -7.524e-7
4.910e-1, -6.879e-7
4.900e-1, -6.510e-7
4.890e-1, -6.387e-7
4.880e-1, -5.926e-7
4.870e-1, -5.865e-7
4.860e-1, -5.404e-7
4.850e-1, -5.066e-7
4.840e-1, -4.912e-7
4.830e-1, -4.451e-7
4.820e-1, -4.390e-7
4.810e-1, -4.206e-7
4.800e-1, -3.775e-7
4.790e-1, -3.652e-7
4.780e-1, -3.437e-7
4.770e-1, -2.946e-7
4.760e-1, -3.130e-7
4.750e-1, -2.608e-7
4.740e-1, -2.454e-7
4.730e-1, -2.301e-7
4.720e-1, -1.963e-7
4.710e-1, -1.901e-7
4.700e-1, -1.717e-7
4.690e-1, -1.625e-7
4.680e-1, -1.348e-7
4.670e-1, -1.072e-7
4.660e-1, -8.257e-8
4.650e-1, -6.106e-8
4.640e-1, -6.414e-8
4.630e-1, -5.492e-8
4.620e-1, -2.112e-8
4.610e-1, 3.461e-9
4.600e-1, -2.684e-9
4.590e-1, 3.726e-8
4.580e-1, 4.648e-8
4.570e-1, 4.033e-8
4.560e-1, 8.949e-8
4.550e-1, 7.413e-8
4.540e-1, 1.018e-7
4.530e-1, 1.294e-7
4.520e-1, 1.110e-7
4.510e-1, 1.632e-7
4.500e-1, 1.694e-7
4.490e-1, 1.786e-7
4.480e-1, 2.155e-7
4.470e-1, 1.940e-7
4.460e-1, 2.247e-7
4.450e-1, 2.431e-7
4.440e-1, 2.339e-7
4.430e-1, 2.677e-7
4.420e-1, 2.769e-7
4.410e-1, 3.076e-7
4.400e-1, 3.076e-7
4.390e-1, 3.107e-7
4.380e-1, 3.292e-7
4.370e-1, 3.292e-7
4.360e-1, 3.630e-7
4.350e-1, 3.752e-7
4.340e-1, 3.906e-7
4.330e-1, 3.814e-7
4.320e-1, 4.090e-7
4.310e-1, 4.060e-7
4.300e-1, 4.275e-7
4.290e-1, 4.428e-7
4.280e-1, 4.275e-7
4.270e-1, 4.705e-7
4.260e-1, 4.951e-7
4.250e-1, 4.797e-7
4.240e-1, 5.227e-7
4.230e-1, 4.981e-7
4.220e-1, 5.197e-7
4.210e-1, 5.504e-7
4.200e-1, 5.350e-7
4.190e-1, 5.750e-7
4.180e-1, 5.719e-7
4.170e-1, 5.750e-7
4.160e-1, 5.811e-7
4.150e-1, 5.934e-7
4.140e-1, 6.149e-7
4.130e-1, 6.426e-7
4.120e-1, 6.303e-7
4.110e-1, 6.548e-7
4.100e-1, 6.733e-7
4.090e-1, 6.825e-7
4.080e-1, 6.948e-7
4.070e-1, 6.886e-7
4.060e-1, 7.009e-7
4.050e-1, 7.224e-7
4.040e-1, 7.194e-7
4.030e-1, 7.501e-7
4.020e-1, 7.470e-7
4.010e-1, 7.532e-7
4.000e-1, 7.747e-7
3.990e-1, 7.562e-7
3.980e-1, 7.870e-7
3.970e-1, 7.993e-7
3.960e-1, 8.023e-7
3.950e-1, 8.392e-7
3.940e-1, 8.453e-7
3.930e-1, 8.361e-7
3.920e-1, 8.331e-7
3.910e-1, 8.576e-7
3.900e-1, 8.822e-7
3.890e-1, 8.884e-7
3.880e-1, 9.007e-7
3.870e-1, 8.945e-7
3.860e-1, 9.406e-7
3.850e-1, 9.222e-7
3.840e-1, 9.467e-7
3.830e-1, 9.406e-7
3.820e-1, 9.560e-7
3.810e-1, 9.713e-7
3.800e-1, 9.744e-7
3.790e-1, 9.990e-7
3.780e-1, 1.014e-6
3.770e-1, 1.002e-6
3.760e-1, 1.048e-6
3.750e-1, 1.005e-6
3.740e-1, 1.042e-6
3.730e-1, 1.063e-6
3.720e-1, 1.057e-6
3.710e-1, 1.110e-6
3.700e-1, 1.097e-6
3.690e-1, 1.100e-6
3.680e-1, 1.131e-6
3.670e-1, 1.113e-6
3.660e-1, 1.156e-6
3.650e-1, 1.156e-6
3.640e-1, 1.159e-6
3.630e-1, 1.177e-6
3.620e-1, 1.196e-6
3.610e-1, 1.189e-6
3.600e-1, 1.220e-6
3.590e-1, 1.239e-6
3.580e-1, 1.242e-6
3.570e-1, 1.251e-6
3.560e-1, 1.263e-6
3.550e-1, 1.285e-6
3.540e-1, 1.297e-6
3.530e-1, 1.300e-6
3.520e-1, 1.319e-6
3.510e-1, 1.312e-6
3.500e-1, 1.343e-6
3.490e-1, 1.368e-6
3.480e-1, 1.365e-6
3.470e-1, 1.405e-6
3.460e-1, 1.401e-6
3.450e-1, 1.398e-6
3.440e-1, 1.438e-6
3.430e-1, 1.438e-6
3.420e-1, 1.460e-6
3.410e-1, 1.475e-6
3.400e-1, 1.478e-6
3.390e-1, 1.512e-6
3.380e-1, 1.527e-6
3.370e-1, 1.524e-6
3.360e-1, 1.558e-6
3.350e-1, 1.564e-6
3.340e-1, 1.583e-6
3.330e-1, 1.617e-6
3.320e-1, 1.604e-6
3.310e-1, 1.650e-6
3.300e-1, 1.675e-6
3.290e-1, 1.666e-6
3.280e-1, 1.709e-6
3.270e-1, 1.696e-6
3.260e-1, 1.746e-6
3.250e-1, 1.764e-6
3.240e-1, 1.773e-6
3.230e-1, 1.807e-6
3.220e-1, 1.810e-6
3.210e-1, 1.844e-6
3.200e-1, 1.878e-6
3.190e-1, 1.884e-6
3.180e-1, 1.933e-6
3.170e-1, 1.939e-6
3.160e-1, 1.948e-6
3.150e-1, 1.994e-6
3.140e-1, 2.034e-6
3.130e-1, 2.050e-6
3.120e-1, 2.084e-6
3.110e-1, 2.093e-6
3.100e-1, 2.127e-6
3.090e-1, 2.173e-6
3.080e-1, 2.194e-6
3.070e-1, 2.231e-6
3.060e-1, 2.277e-6
3.050e-1, 2.286e-6
3.040e-1, 2.342e-6
3.030e-1, 2.348e-6
3.020e-1, 2.406e-6
3.010e-1, 2.452e-6
3.000e-1, 2.462e-6
2.990e-1, 2.529e-6
2.980e-1, 2.560e-6
2.970e-1, 2.581e-6
2.960e-1, 2.646e-6
2.950e-1, 2.683e-6
2.940e-1, 2.756e-6
2.930e-1, 2.778e-6
2.920e-1, 2.824e-6
2.910e-1, 2.895e-6
2.900e-1, 2.935e-6
2.890e-1, 2.981e-6
2.880e-1, 3.042e-6
2.870e-1, 3.064e-6
2.860e-1, 3.131e-6
2.850e-1, 3.214e-6
2.840e-1, 3.263e-6
2.830e-1, 3.337e-6
2.820e-1, 3.432e-6
2.810e-1, 3.442e-6
2.800e-1, 3.531e-6
2.790e-1, 3.586e-6
2.780e-1, 3.675e-6
2.770e-1, 3.737e-6
2.760e-1, 3.813e-6
2.750e-1, 3.903e-6
2.740e-1, 3.989e-6
2.730e-1, 4.056e-6
2.720e-1, 4.161e-6
2.710e-1, 4.213e-6
2.700e-1, 4.314e-6
2.690e-1, 4.403e-6
2.680e-1, 4.496e-6
2.670e-1, 4.609e-6
2.660e-1, 4.695e-6
2.650e-1, 4.797e-6
2.640e-1, 4.898e-6
2.630e-1, 4.996e-6
2.620e-1, 5.116e-6
2.610e-1, 5.233e-6
2.600e-1, 5.328e-6
2.590e-1, 5.466e-6
2.580e-1, 5.596e-6
2.570e-1, 5.672e-6
2.560e-1, 5.820e-6
2.550e-1, 5.924e-6
2.540e-1, 6.072e-6
2.530e-1, 6.210e-6
2.520e-1, 6.308e-6
2.510e-1, 6.474e-6
2.500e-1, 6.609e-6
2.490e-1, 6.745e-6
2.480e-1, 6.908e-6
2.470e-1, 7.012e-6
2.460e-1, 7.181e-6
2.450e-1, 7.319e-6
2.440e-1, 7.476e-6
2.430e-1, 7.642e-6
2.420e-1, 7.774e-6
2.410e-1, 7.943e-6
2.400e-1, 8.090e-6
2.390e-1, 8.235e-6
2.380e-1, 8.422e-6
2.370e-1, 8.585e-6
2.360e-1, 8.745e-6
2.350e-1, 8.899e-6
2.340e-1, 9.083e-6
2.330e-1, 9.212e-6
2.320e-1, 9.399e-6
2.310e-1, 9.568e-6
2.300e-1, 9.734e-6
2.290e-1, 9.912e-6
2.280e-1, 1.004e-5
2.270e-1, 1.025e-5
2.260e-1, 1.041e-5
2.250e-1, 1.055e-5
2.240e-1, 1.075e-5
2.230e-1, 1.087e-5
2.220e-1, 1.106e-5
2.210e-1, 1.124e-5
2.200e-1, 1.136e-5
2.190e-1, 1.156e-5
2.180e-1, 1.170e-5
2.170e-1, 1.183e-5
2.160e-1, 1.199e-5
2.150e-1, 1.211e-5
2.140e-1, 1.230e-5
2.130e-1, 1.244e-5
2.120e-1, 1.259e-5
2.110e-1, 1.272e-5
2.100e-1, 1.284e-5
2.090e-1, 1.297e-5
2.080e-1, 1.312e-5
2.070e-1, 1.321e-5
2.060e-1, 1.335e-5
2.050e-1, 1.346e-5
2.040e-1, 1.357e-5
2.030e-1, 1.370e-5
2.020e-1, 1.379e-5
2.010e-1, 1.388e-5
2.000e-1, 1.399e-5
1.990e-1, 1.405e-5
1.980e-1, 1.416e-5
1.970e-1, 1.424e-5
1.960e-1, 1.431e-5
1.950e-1, 1.439e-5
1.940e-1, 1.445e-5
1.930e-1, 1.451e-5
1.920e-1, 1.456e-5
1.910e-1, 1.460e-5
1.900e-1, 1.467e-5
1.890e-1, 1.471e-5
1.880e-1, 1.477e-5
1.870e-1, 1.478e-5
1.860e-1, 1.483e-5
1.850e-1, 1.484e-5
1.840e-1, 1.488e-5
1.830e-1, 1.489e-5
1.820e-1, 1.491e-5
1.810e-1, 1.493e-5
1.800e-1, 1.491e-5
1.790e-1, 1.497e-5
1.780e-1, 1.495e-5
1.770e-1, 1.494e-5
1.760e-1, 1.496e-5
1.750e-1, 1.490e-5
1.740e-1, 1.494e-5
1.730e-1, 1.491e-5
1.720e-1, 1.488e-5
1.710e-1, 1.490e-5
1.700e-1, 1.485e-5
1.690e-1, 1.483e-5
1.680e-1, 1.483e-5
1.670e-1, 1.478e-5
1.660e-1, 1.477e-5
1.650e-1, 1.471e-5
1.640e-1, 1.468e-5
1.630e-1, 1.464e-5
1.620e-1, 1.462e-5
1.610e-1, 1.458e-5
1.600e-1, 1.455e-5
1.590e-1, 1.451e-5
1.580e-1, 1.446e-5
1.570e-1, 1.442e-5
1.560e-1, 1.438e-5
1.550e-1, 1.434e-5
1.540e-1, 1.431e-5
1.530e-1, 1.424e-5
1.520e-1, 1.423e-5
1.510e-1, 1.413e-5
1.500e-1, 1.410e-5
1.490e-1, 1.407e-5
1.480e-1, 1.401e-5
1.470e-1, 1.398e-5
1.460e-1, 1.392e-5
1.450e-1, 1.385e-5
1.440e-1, 1.384e-5
1.430e-1, 1.375e-5
1.420e-1, 1.373e-5
1.410e-1, 1.368e-5
1.400e-1, 1.359e-5
1.390e-1, 1.356e-5
1.380e-1, 1.353e-5
1.370e-1, 1.346e-5
1.360e-1, 1.343e-5
1.350e-1, 1.338e-5
1.340e-1, 1.332e-5
1.330e-1, 1.328e-5
1.320e-1, 1.323e-5
1.310e-1, 1.320e-5
1.300e-1, 1.314e-5
1.290e-1, 1.309e-5
1.280e-1, 1.305e-5
1.270e-1, 1.296e-5
1.260e-1, 1.295e-5
1.250e-1, 1.290e-5
1.240e-1, 1.284e-5
1.230e-1, 1.283e-5
1.220e-1, 1.277e-5
1.210e-1, 1.273e-5
1.200e-1, 1.268e-5
1.190e-1, 1.262e-5
1.180e-1, 1.259e-5
1.170e-1, 1.255e-5
1.160e-1, 1.249e-5
1.150e-1, 1.246e-5
1.140e-1, 1.241e-5
1.130e-1, 1.236e-5
1.120e-1, 1.234e-5
1.110e-1, 1.228e-5
1.100e-1, 1.223e-5
1.090e-1, 1.222e-5
1.080e-1, 1.216e-5
1.070e-1, 1.214e-5
1.060e-1, 1.211e-5
1.050e-1, 1.203e-5
1.040e-1, 1.202e-5
1.030e-1, 1.195e-5
1.020e-1, 1.195e-5
1.010e-1, 1.191e-5
1.000e-1, 1.185e-5
9.900e-2, 1.183e-5
9.800e-2, 1.179e-5
9.700e-2, 1.175e-5
9.600e-2, 1.172e-5
9.500e-2, 1.166e-5
9.400e-2, 1.164e-5
9.300e-2, 1.161e-5
9.200e-2, 1.157e-5
9.100e-2, 1.154e-5
9.000e-2, 1.150e-5
8.900e-2, 1.146e-5
8.800e-2, 1.144e-5
8.700e-2, 1.139e-5
8.600e-2, 1.134e-5
8.500e-2, 1.133e-5
8.400e-2, 1.130e-5
8.300e-2, 1.127e-5
8.200e-2, 1.127e-5
8.100e-2, 1.119e-5
8.000e-2, 1.118e-5
7.900e-2, 1.113e-5
7.800e-2, 1.111e-5
7.700e-2, 1.109e-5
7.600e-2, 1.104e-5
7.500e-2, 1.102e-5
7.400e-2, 1.099e-5
7.300e-2, 1.095e-5
7.200e-2, 1.094e-5
7.100e-2, 1.089e-5
7.000e-2, 1.089e-5
6.900e-2, 1.084e-5
6.800e-2, 1.081e-5
6.700e-2, 1.080e-5
6.600e-2, 1.077e-5
6.500e-2, 1.073e-5
6.400e-2, 1.071e-5
6.300e-2, 1.066e-5
6.200e-2, 1.066e-5
6.100e-2, 1.064e-5
6.000e-2, 1.058e-5
5.900e-2, 1.059e-5
5.800e-2, 1.056e-5
5.700e-2, 1.052e-5
5.600e-2, 1.052e-5
5.500e-2, 1.047e-5
5.400e-2, 1.045e-5
5.300e-2, 1.044e-5
5.200e-2, 1.041e-5
5.100e-2, 1.039e-5
5.000e-2, 1.036e-5
4.900e-2, 1.033e-5
4.800e-2, 1.032e-5
4.700e-2, 1.028e-5
4.600e-2, 1.029e-5
4.500e-2, 1.024e-5
4.400e-2, 1.021e-5
4.300e-2, 1.020e-5
4.200e-2, 1.019e-5
4.100e-2, 1.016e-5
4.000e-2, 1.014e-5
3.900e-2, 1.010e-5
3.800e-2, 1.008e-5
3.700e-2, 1.008e-5
3.600e-2, 1.005e-5
3.500e-2, 1.004e-5
3.400e-2, 1.001e-5
3.300e-2, 9.962e-6
3.200e-2, 9.986e-6
3.100e-2, 9.940e-6
3.000e-2, 9.931e-6
2.900e-2, 9.937e-6
2.800e-2, 9.876e-6
2.700e-2, 9.888e-6
2.600e-2, 9.863e-6
2.500e-2, 9.830e-6
2.400e-2, 9.833e-6
2.300e-2, 9.790e-6
2.200e-2, 9.783e-6
2.100e-2, 9.753e-6
2.000e-2, 9.747e-6
1.900e-2, 9.747e-6
1.800e-2, 9.716e-6
1.700e-2, 9.710e-6
1.600e-2, 9.694e-6
1.500e-2, 9.657e-6
1.400e-2, 9.651e-6
1.300e-2, 9.642e-6
1.200e-2, 9.618e-6
1.100e-2, 9.611e-6
1.000e-2, 9.593e-6
9.003e-3, 9.571e-6
8.003e-3, 9.559e-6
7.003e-3, 9.547e-6
6.003e-3, 9.535e-6
5.003e-3, 9.519e-6
4.003e-3, 9.479e-6
3.003e-3, 9.485e-6
2.003e-3, 9.485e-6
1.003e-3, 9.458e-6
2.887e-6, 9.458e-6
-9.971e-4, 9.436e-6
-1.997e-3, 9.415e-6
-2.997e-3, 9.402e-6
-3.997e-3, 9.384e-6
-4.997e-3, 9.384e-6
-5.997e-3, 9.372e-6
-6.997e-3, 9.350e-6
-7.997e-3, 9.347e-6
-8.997e-3, 9.319e-6
-9.997e-3, 9.310e-6
-1.100e-2, 9.313e-6
-1.200e-2, 9.292e-6
-1.300e-2, 9.286e-6
-1.400e-2, 9.283e-6
-1.500e-2, 9.252e-6
-1.600e-2, 9.249e-6
-1.700e-2, 9.218e-6
-1.800e-2, 9.224e-6
-1.900e-2, 9.215e-6
-2.000e-2, 9.175e-6
-2.100e-2, 9.194e-6
-2.200e-2, 9.181e-6
-2.300e-2, 9.163e-6
-2.400e-2, 9.181e-6
-2.500e-2, 9.132e-6
-2.600e-2, 9.132e-6
-2.700e-2, 9.129e-6
-2.800e-2, 9.114e-6
-2.900e-2, 9.114e-6
-3.000e-2, 9.104e-6
-3.100e-2, 9.077e-6
-3.200e-2, 9.074e-6
-3.300e-2, 9.068e-6
-3.400e-2, 9.055e-6
-3.500e-2, 9.055e-6
-3.600e-2, 9.049e-6
-3.700e-2, 9.028e-6
-3.800e-2, 9.031e-6
-3.900e-2, 9.003e-6
-4.000e-2, 9.003e-6
-4.100e-2, 8.991e-6
-4.200e-2, 8.978e-6
-4.300e-2, 8.985e-6
-4.400e-2, 8.966e-6
-4.500e-2, 8.966e-6
-4.600e-2, 8.957e-6
-4.700e-2, 8.932e-6
-4.800e-2, 8.938e-6
-4.900e-2, 8.908e-6
-5.000e-2, 8.917e-6
-5.100e-2, 8.920e-6
-5.200e-2, 8.889e-6
-5.300e-2, 8.917e-6
-5.400e-2, 8.889e-6
-5.500e-2, 8.877e-6
-5.600e-2, 8.880e-6
-5.700e-2, 8.856e-6
-5.800e-2, 8.856e-6
-5.900e-2, 8.865e-6
-6.000e-2, 8.859e-6
-6.100e-2, 8.840e-6
-6.200e-2, 8.837e-6
-6.300e-2, 8.831e-6
-6.400e-2, 8.828e-6
-6.500e-2, 8.803e-6
-6.600e-2, 8.806e-6
-6.700e-2, 8.794e-6
-6.800e-2, 8.779e-6
-6.900e-2, 8.794e-6
-7.000e-2, 8.785e-6
-7.100e-2, 8.769e-6
-7.200e-2, 8.766e-6
-7.300e-2, 8.742e-6
-7.400e-2, 8.754e-6
-7.500e-2, 8.760e-6
-7.600e-2, 8.748e-6
-7.700e-2, 8.760e-6
-7.800e-2, 8.730e-6
-7.900e-2, 8.720e-6
-8.000e-2, 8.733e-6
-8.100e-2, 8.714e-6
-8.200e-2, 8.708e-6
-8.300e-2, 8.720e-6
-8.400e-2, 8.702e-6
-8.500e-2, 8.683e-6
-8.600e-2, 8.699e-6
-8.700e-2, 8.668e-6
-8.800e-2, 8.693e-6
-8.900e-2, 8.680e-6
-9.000e-2, 8.665e-6
-9.100e-2, 8.671e-6
-9.200e-2, 8.659e-6
-9.300e-2, 8.677e-6
-9.400e-2, 8.668e-6
-9.500e-2, 8.644e-6
-9.600e-2, 8.653e-6
-9.700e-2, 8.628e-6
-9.800e-2, 8.644e-6
-9.900e-2, 8.634e-6
-1.000e-1, 8.634e-6
-9.900e-2, 7.968e-6
-9.800e-2, 7.713e-6
-9.700e-2, 7.568e-6
-9.600e-2, 7.408e-6
-9.500e-2, 7.279e-6
-9.400e-2, 7.178e-6
-9.300e-2, 7.077e-6
-9.200e-2, 6.966e-6
-9.100e-2, 6.886e-6
-9.000e-2, 6.772e-6
-8.900e-2, 6.671e-6
-8.800e-2, 6.619e-6
-8.700e-2, 6.530e-6
-8.600e-2, 6.484e-6
-8.500e-2, 6.404e-6
-8.400e-2, 6.318e-6
-8.300e-2, 6.241e-6
-8.200e-2, 6.198e-6
-8.100e-2, 6.142e-6
-8.000e-2, 6.084e-6
-7.900e-2, 6.010e-6
-7.800e-2, 5.964e-6
-7.700e-2, 5.900e-6
-7.600e-2, 5.838e-6
-7.500e-2, 5.792e-6
-7.400e-2, 5.743e-6
-7.300e-2, 5.685e-6
-7.200e-2, 5.632e-6
-7.100e-2, 5.562e-6
-7.000e-2, 5.528e-6
-6.900e-2, 5.494e-6
-6.800e-2, 5.427e-6
-6.700e-2, 5.417e-6
-6.600e-2, 5.359e-6
-6.500e-2, 5.310e-6
-6.400e-2, 5.273e-6
-6.300e-2, 5.227e-6
-6.200e-2, 5.227e-6
-6.100e-2, 5.135e-6
-6.000e-2, 5.110e-6
-5.900e-2, 5.021e-6
-5.800e-2, 5.009e-6
-5.700e-2, 4.996e-6
-5.600e-2, 4.969e-6
-5.500e-2, 4.898e-6
-5.400e-2, 4.867e-6
-5.300e-2, 4.846e-6
-5.200e-2, 4.809e-6
-5.100e-2, 4.784e-6
-5.000e-2, 4.760e-6
-4.900e-2, 4.698e-6
-4.800e-2, 4.668e-6
-4.700e-2, 4.622e-6
-4.600e-2, 4.600e-6
-4.500e-2, 4.588e-6
-4.400e-2, 4.554e-6
-4.300e-2, 4.486e-6
-4.200e-2, 4.477e-6
-4.100e-2, 4.434e-6
-4.000e-2, 4.416e-6
-3.900e-2, 4.370e-6
-3.800e-2, 4.382e-6
-3.700e-2, 4.330e-6
-3.600e-2, 4.296e-6
-3.500e-2, 4.265e-6
-3.400e-2, 4.241e-6
-3.300e-2, 4.231e-6
-3.200e-2, 4.182e-6
-3.100e-2, 4.158e-6
-3.000e-2, 4.124e-6
-2.900e-2, 4.130e-6
-2.800e-2, 4.068e-6
-2.700e-2, 4.065e-6
-2.600e-2, 4.019e-6
-2.500e-2, 4.004e-6
-2.400e-2, 3.995e-6
-2.300e-2, 3.930e-6
-2.200e-2, 3.924e-6
-2.100e-2, 3.921e-6
-2.000e-2, 3.878e-6
-1.900e-2, 3.853e-6
-1.800e-2, 3.832e-6
-1.700e-2, 3.783e-6
-1.600e-2, 3.801e-6
-1.500e-2, 3.755e-6
-1.400e-2, 3.752e-6
-1.300e-2, 3.715e-6
-1.200e-2, 3.666e-6
-1.100e-2, 3.651e-6
-1.000e-2, 3.654e-6
-9.000e-3, 3.632e-6
-8.000e-3, 3.598e-6
-7.000e-3, 3.568e-6
-6.000e-3, 3.546e-6
-5.000e-3, 3.555e-6
-4.000e-3, 3.491e-6
-3.000e-3, 3.488e-6
-2.000e-3, 3.463e-6
-1.000e-3, 3.439e-6
2.584e-8, 3.411e-6
1.000e-3, 3.383e-6
2.000e-3, 3.386e-6
3.000e-3, 3.389e-6
4.000e-3, 3.346e-6
5.000e-3, 3.291e-6
6.000e-3, 3.322e-6
7.000e-3, 3.267e-6
8.000e-3, 3.248e-6
9.000e-3, 3.220e-6
1.000e-2, 3.211e-6
1.100e-2, 3.196e-6
1.200e-2, 3.196e-6
1.300e-2, 3.156e-6
1.400e-2, 3.147e-6
1.500e-2, 3.128e-6
1.600e-2, 3.101e-6
1.700e-2, 3.101e-6
1.800e-2, 3.076e-6
1.900e-2, 3.070e-6
2.000e-2, 3.024e-6
2.100e-2, 3.033e-6
2.200e-2, 2.993e-6
2.300e-2, 2.996e-6
2.400e-2, 2.968e-6
2.500e-2, 2.941e-6
2.600e-2, 2.929e-6
2.700e-2, 2.910e-6
2.800e-2, 2.895e-6
2.900e-2, 2.858e-6
3.000e-2, 2.852e-6
3.100e-2, 2.824e-6
3.200e-2, 2.803e-6
3.300e-2, 2.809e-6
3.400e-2, 2.793e-6
3.500e-2, 2.781e-6
3.600e-2, 2.750e-6
3.700e-2, 2.710e-6
3.800e-2, 2.729e-6
3.900e-2, 2.689e-6
4.000e-2, 2.664e-6
4.100e-2, 2.667e-6
4.200e-2, 2.643e-6
4.300e-2, 2.646e-6
4.400e-2, 2.591e-6
4.500e-2, 2.584e-6
4.600e-2, 2.548e-6
4.700e-2, 2.557e-6
4.800e-2, 2.514e-6
4.900e-2, 2.514e-6
5.000e-2, 2.489e-6
5.100e-2, 2.480e-6
5.200e-2, 2.446e-6
5.300e-2, 2.412e-6
5.400e-2, 2.425e-6
5.500e-2, 2.409e-6
5.600e-2, 2.382e-6
5.700e-2, 2.369e-6
5.800e-2, 2.354e-6
5.900e-2, 2.332e-6
6.000e-2, 2.323e-6
6.100e-2, 2.277e-6
6.200e-2, 2.271e-6
6.300e-2, 2.256e-6
6.400e-2, 2.219e-6
6.500e-2, 2.240e-6
6.600e-2, 2.200e-6
6.700e-2, 2.188e-6
6.800e-2, 2.173e-6
6.900e-2, 2.127e-6
7.000e-2, 2.117e-6
7.100e-2, 2.127e-6
7.200e-2, 2.068e-6
7.300e-2, 2.062e-6
7.400e-2, 2.034e-6
7.500e-2, 2.034e-6
7.600e-2, 2.019e-6
7.700e-2, 1.970e-6
7.800e-2, 1.982e-6
7.900e-2, 1.958e-6
8.000e-2, 1.908e-6
8.100e-2, 1.908e-6
8.200e-2, 1.884e-6
8.300e-2, 1.859e-6
8.400e-2, 1.865e-6
8.500e-2, 1.807e-6
8.600e-2, 1.798e-6
8.700e-2, 1.770e-6
8.800e-2, 1.727e-6
8.900e-2, 1.733e-6
9.000e-2, 1.715e-6
9.100e-2, 1.687e-6
9.200e-2, 1.657e-6
9.300e-2, 1.620e-6
9.400e-2, 1.595e-6
9.500e-2, 1.595e-6
9.600e-2, 1.540e-6
9.700e-2, 1.549e-6
9.800e-2, 1.518e-6
9.900e-2, 1.460e-6
1.000e-1, 1.475e-6
1.010e-1, 1.435e-6
1.020e-1, 1.411e-6
1.030e-1, 1.368e-6
1.040e-1, 1.349e-6
1.050e-1, 1.309e-6
1.060e-1, 1.331e-6
1.070e-1, 1.272e-6
1.080e-1, 1.248e-6
1.090e-1, 1.214e-6
1.100e-1, 1.205e-6
1.110e-1, 1.189e-6
1.120e-1, 1.110e-6
1.130e-1, 1.094e-6
1.140e-1, 1.073e-6
1.150e-1, 1.036e-6
1.160e-1, 9.959e-7
1.170e-1, 9.867e-7
1.180e-1, 9.191e-7
1.190e-1, 9.068e-7
1.200e-1, 8.515e-7
1.210e-1, 8.269e-7
1.220e-1, 8.023e-7
1.230e-1, 7.593e-7
1.240e-1, 6.979e-7
1.250e-1, 6.825e-7
1.260e-1, 6.487e-7
1.270e-1, 6.241e-7
1.280e-1, 5.719e-7
1.290e-1, 5.381e-7
1.300e-1, 5.135e-7
1.310e-1, 4.275e-7
1.320e-1, 4.428e-7
1.330e-1, 3.660e-7
1.340e-1, 3.138e-7
1.350e-1, 3.015e-7
1.360e-1, 2.216e-7
1.370e-1, 1.694e-7
1.380e-1, 1.602e-7
1.390e-1, 7.413e-8
1.400e-1, 4.340e-8
1.410e-1, -2.684e-9
1.420e-1, -7.028e-8
1.430e-1, -1.072e-7
1.440e-1, -1.717e-7
1.450e-1, -2.362e-7
1.460e-1, -2.915e-7
1.470e-1, -3.253e-7
1.480e-1, -4.021e-7
1.490e-1, -4.390e-7
1.500e-1, -5.127e-7
1.510e-1, -5.803e-7
1.520e-1, -6.387e-7
1.530e-1, -7.063e-7
1.540e-1, -7.585e-7
1.550e-1, -8.599e-7
1.560e-1, -9.122e-7
1.570e-1, -9.982e-7
1.580e-1, -1.044e-6
1.590e-1, -1.143e-6
1.600e-1, -1.216e-6
1.610e-1, -1.293e-6
1.620e-1, -1.373e-6
1.630e-1, -1.444e-6
1.640e-1, -1.521e-6
1.650e-1, -1.597e-6
1.660e-1, -1.705e-6
1.670e-1, -1.785e-6
1.680e-1, -1.880e-6
1.690e-1, -1.972e-6
1.700e-1, -2.043e-6
1.710e-1, -2.117e-6
1.720e-1, -2.255e-6
1.730e-1, -2.319e-6
1.740e-1, -2.430e-6
1.750e-1, -2.556e-6
1.760e-1, -2.657e-6
1.770e-1, -2.728e-6
1.780e-1, -2.842e-6
1.790e-1, -2.958e-6
1.800e-1, -3.035e-6
1.810e-1, -3.186e-6
1.820e-1, -3.266e-6
1.830e-1, -3.407e-6
1.840e-1, -3.499e-6
1.850e-1, -3.622e-6
1.860e-1, -3.751e-6
1.870e-1, -3.856e-6
1.880e-1, -3.976e-6
1.890e-1, -4.062e-6
1.900e-1, -4.191e-6
1.910e-1, -4.323e-6
1.920e-1, -4.461e-6
1.930e-1, -4.532e-6
1.940e-1, -4.707e-6
1.950e-1, -4.799e-6
1.960e-1, -4.903e-6
1.970e-1, -5.072e-6
1.980e-1, -5.186e-6
1.990e-1, -5.291e-6
2.000e-1, -5.432e-6
2.010e-1, -5.521e-6
2.020e-1, -5.678e-6
2.030e-1, -5.764e-6
2.040e-1, -5.890e-6
2.050e-1, -6.037e-6
2.060e-1, -6.129e-6
2.070e-1, -6.258e-6
2.080e-1, -6.369e-6
2.090e-1, -6.483e-6
2.100e-1, -6.590e-6
2.110e-1, -6.707e-6
2.120e-1, -6.790e-6
2.130e-1, -6.919e-6
2.140e-1, -6.980e-6
2.150e-1, -7.091e-6
2.160e-1, -7.217e-6
2.170e-1, -7.285e-6
2.180e-1, -7.411e-6
2.190e-1, -7.484e-6
2.200e-1, -7.530e-6
2.210e-1, -7.653e-6
2.220e-1, -7.746e-6
2.230e-1, -7.804e-6
2.240e-1, -7.893e-6
2.250e-1, -7.933e-6
2.260e-1, -8.028e-6
2.270e-1, -8.087e-6
2.280e-1, -8.145e-6
2.290e-1, -8.216e-6
2.300e-1, -8.271e-6
2.310e-1, -8.280e-6
2.320e-1, -8.329e-6
2.330e-1, -8.403e-6
2.340e-1, -8.409e-6
2.350e-1, -8.492e-6
2.360e-1, -8.486e-6
2.370e-1, -8.535e-6
2.380e-1, -8.566e-6
2.390e-1, -8.594e-6
2.400e-1, -8.600e-6
2.410e-1, -8.600e-6
2.420e-1, -8.643e-6
2.430e-1, -8.649e-6
2.440e-1, -8.664e-6
2.450e-1, -8.664e-6
2.460e-1, -8.680e-6
2.470e-1, -8.655e-6
2.480e-1, -8.692e-6
2.490e-1, -8.670e-6
2.500e-1, -8.649e-6
2.510e-1, -8.649e-6
2.520e-1, -8.637e-6
2.530e-1, -8.630e-6
2.540e-1, -8.634e-6
2.550e-1, -8.578e-6
2.560e-1, -8.581e-6
2.570e-1, -8.584e-6
2.580e-1, -8.520e-6
2.590e-1, -8.529e-6
2.600e-1, -8.471e-6
2.610e-1, -8.471e-6
2.620e-1, -8.455e-6
2.630e-1, -8.418e-6
2.640e-1, -8.379e-6
2.650e-1, -8.354e-6
2.660e-1, -8.311e-6
2.670e-1, -8.292e-6
2.680e-1, -8.262e-6
2.690e-1, -8.228e-6
2.700e-1, -8.185e-6
2.710e-1, -8.123e-6
2.720e-1, -8.102e-6
2.730e-1, -8.068e-6
2.740e-1, -8.019e-6
2.750e-1, -8.034e-6
2.760e-1, -7.942e-6
2.770e-1, -7.911e-6
2.780e-1, -7.890e-6
2.790e-1, -7.829e-6
2.800e-1, -7.813e-6
2.810e-1, -7.761e-6
2.820e-1, -7.696e-6
2.830e-1, -7.684e-6
2.840e-1, -7.613e-6
2.850e-1, -7.607e-6
2.860e-1, -7.537e-6
2.870e-1, -7.518e-6
2.880e-1, -7.457e-6
2.890e-1, -7.451e-6
2.900e-1, -7.383e-6
2.910e-1, -7.349e-6
2.920e-1, -7.318e-6
2.930e-1, -7.263e-6
2.940e-1, -7.254e-6
2.950e-1, -7.183e-6
2.960e-1, -7.171e-6
2.970e-1, -7.134e-6
2.980e-1, -7.094e-6
2.990e-1, -7.070e-6
3.000e-1, -7.014e-6
3.010e-1, -6.965e-6
3.020e-1, -6.956e-6
3.030e-1, -6.919e-6
3.040e-1, -6.894e-6
3.050e-1, -6.851e-6
3.060e-1, -6.793e-6
3.070e-1, -6.756e-6
3.080e-1, -6.710e-6
3.090e-1, -6.719e-6
3.100e-1, -6.676e-6
3.110e-1, -6.664e-6
3.120e-1, -6.593e-6
3.130e-1, -6.609e-6
3.140e-1, -6.517e-6
3.150e-1, -6.510e-6
3.160e-1, -6.526e-6
3.170e-1, -6.434e-6
3.180e-1, -6.446e-6
3.190e-1, -6.366e-6
3.200e-1, -6.375e-6
3.210e-1, -6.335e-6
3.220e-1, -6.311e-6
3.230e-1, -6.268e-6
3.240e-1, -6.252e-6
3.250e-1, -6.212e-6
3.260e-1, -6.206e-6
3.270e-1, -6.166e-6
3.280e-1, -6.105e-6
3.290e-1, -6.123e-6
3.300e-1, -6.096e-6
3.310e-1, -6.040e-6
3.320e-1, -6.031e-6
3.330e-1, -6.025e-6
3.340e-1, -5.997e-6
3.350e-1, -5.988e-6
3.360e-1, -5.951e-6
3.370e-1, -5.942e-6
3.380e-1, -5.908e-6
3.390e-1, -5.865e-6
3.400e-1, -5.850e-6
3.410e-1, -5.868e-6
3.420e-1, -5.813e-6
3.430e-1, -5.794e-6
3.440e-1, -5.773e-6
3.450e-1, -5.767e-6
3.460e-1, -5.745e-6
3.470e-1, -5.712e-6
3.480e-1, -5.718e-6
3.490e-1, -5.678e-6
3.500e-1, -5.675e-6
3.510e-1, -5.659e-6
3.520e-1, -5.613e-6
3.530e-1, -5.616e-6
3.540e-1, -5.601e-6
3.550e-1, -5.530e-6
3.560e-1, -5.527e-6
3.570e-1, -5.549e-6
3.580e-1, -5.487e-6
3.590e-1, -5.487e-6
3.600e-1, -5.481e-6
3.610e-1, -5.456e-6
3.620e-1, -5.438e-6
3.630e-1, -5.435e-6
3.640e-1, -5.401e-6
3.650e-1, -5.417e-6
3.660e-1, -5.395e-6
3.670e-1, -5.352e-6
3.680e-1, -5.361e-6
3.690e-1, -5.334e-6
3.700e-1, -5.337e-6
3.710e-1, -5.315e-6
3.720e-1, -5.303e-6
3.730e-1, -5.281e-6
3.740e-1, -5.291e-6
3.750e-1, -5.241e-6
3.760e-1, -5.251e-6
3.770e-1, -5.229e-6
3.780e-1, -5.232e-6
3.790e-1, -5.226e-6
3.800e-1, -5.186e-6
3.810e-1, -5.214e-6
3.820e-1, -5.152e-6
3.830e-1, -5.152e-6
3.840e-1, -5.162e-6
3.850e-1, -5.134e-6
3.860e-1, -5.131e-6
3.870e-1, -5.106e-6
3.880e-1, -5.094e-6
3.890e-1, -5.134e-6
3.900e-1, -5.069e-6
3.910e-1, -5.088e-6
3.920e-1, -5.091e-6
3.930e-1, -5.051e-6
3.940e-1, -5.029e-6
3.950e-1, -5.023e-6
3.960e-1, -5.017e-6
3.970e-1, -5.020e-6
3.980e-1, -5.002e-6
3.990e-1, -4.983e-6
4.000e-1, -5.023e-6
4.010e-1, -4.943e-6
4.020e-1, -4.974e-6
4.030e-1, -4.959e-6
4.040e-1, -4.962e-6
4.050e-1, -4.946e-6
4.060e-1, -4.928e-6
4.070e-1, -4.903e-6
4.080e-1, -4.922e-6
4.090e-1, -4.903e-6
4.100e-1, -4.863e-6
4.110e-1, -4.922e-6
4.120e-1, -4.882e-6
4.130e-1, -4.888e-6
4.140e-1, -4.857e-6
4.150e-1, -4.848e-6
4.160e-1, -4.885e-6
4.170e-1, -4.851e-6
4.180e-1, -4.830e-6
4.190e-1, -4.857e-6
4.200e-1, -4.842e-6
4.210e-1, -4.833e-6
4.220e-1, -4.824e-6
4.230e-1, -4.777e-6
4.240e-1, -4.842e-6
4.250e-1, -4.796e-6
4.260e-1, -4.790e-6
4.270e-1, -4.781e-6
4.280e-1, -4.805e-6
4.290e-1, -4.777e-6
4.300e-1, -4.768e-6
4.310e-1, -4.741e-6
4.320e-1, -4.762e-6
4.330e-1, -4.756e-6
4.340e-1, -4.741e-6
4.350e-1, -4.768e-6
4.360e-1, -4.722e-6
4.370e-1, -4.722e-6
4.380e-1, -4.738e-6
4.390e-1, -4.710e-6
4.400e-1, -4.738e-6
4.410e-1, -4.731e-6
4.420e-1, -4.679e-6
4.430e-1, -4.698e-6
4.440e-1, -4.707e-6
4.450e-1, -4.701e-6
4.460e-1, -4.701e-6
4.470e-1, -4.713e-6
4.480e-1, -4.691e-6
4.490e-1, -4.655e-6
4.500e-1, -4.673e-6
4.510e-1, -4.655e-6
4.520e-1, -4.655e-6
4.530e-1, -4.645e-6
4.540e-1, -4.655e-6
4.550e-1, -4.655e-6
4.560e-1, -4.655e-6
4.570e-1, -4.655e-6
4.580e-1, -4.615e-6
4.590e-1, -4.655e-6
4.600e-1, -4.655e-6
4.610e-1, -4.639e-6
4.620e-1, -4.612e-6
4.630e-1, -4.618e-6
4.640e-1, -4.596e-6
4.650e-1, -4.651e-6
4.660e-1, -4.636e-6
4.670e-1, -4.618e-6
4.680e-1, -4.608e-6
4.690e-1, -4.627e-6
4.700e-1, -4.636e-6
4.710e-1, -4.633e-6
4.720e-1, -4.599e-6
4.730e-1, -4.612e-6
4.740e-1, -4.621e-6
4.750e-1, -4.581e-6
4.760e-1, -4.593e-6
4.770e-1, -4.590e-6
4.780e-1, -4.618e-6
4.790e-1, -4.559e-6
4.800e-1, -4.587e-6
4.810e-1, -4.587e-6
4.820e-1, -4.605e-6
4.830e-1, -4.587e-6
4.840e-1, -4.584e-6
4.850e-1, -4.581e-6
4.860e-1, -4.587e-6
4.870e-1, -4.584e-6
4.880e-1, -4.587e-6
4.890e-1, -4.587e-6
4.900e-1, -4.565e-6
4.910e-1, -4.578e-6
4.920e-1, -4.572e-6
4.930e-1, -4.547e-6
4.940e-1, -4.569e-6
4.950e-1, -4.569e-6
4.960e-1, -4.581e-6
4.970e-1, -4.578e-6
4.980e-1, -4.593e-6
4.990e-1, -4.535e-6
5.000e-1, -4.535e-6
